 Field[T] Tsmpl[K] Tcntr[K] Signal
 0.00000    1.77     1.80   6.91870
 0.05000    1.77     1.80   6.91790
 0.10000    1.77     1.80   6.91760
 0.15000    1.77     1.80   6.91460
 0.20000    1.77     1.80   6.91260
 0.25000    1.77     1.80   6.91460
 0.30000    1.77     1.80   6.91610
 0.35000    1.78     1.80   6.91150
 0.40000    1.78     1.80   6.91750
 0.45000    1.78     1.80   6.91490
 0.50000    1.78     1.80   6.91660
 0.55000    1.78     1.80   6.91310
 0.60000    1.78     1.80   6.91450
 0.65000    1.78     1.80   6.91070
 0.70000    1.78     1.80   6.90680
 0.75000    1.78     1.80   6.90730
 0.80000    1.78     1.80   6.90620
 0.85000    1.78     1.80   6.90550
 0.90000    1.78     1.80   6.90560
 0.95000    1.78     1.80   6.90610
 1.00000    1.78     1.80   6.90480
 1.05000    1.78     1.80   6.89880
 1.10000    1.78     1.80   6.89840
 1.15000    1.78     1.80   6.90260
 1.20000    1.78     1.80   6.90090
 1.25000    1.78     1.80   6.89100
 1.30000    1.78     1.80   6.88260
 1.35000    1.78     1.80   6.87100
 1.40000    1.78     1.80   6.86490
 1.45000    1.78     1.80   6.85540
 1.50000    1.78     1.80   6.84370
 1.55000    1.78     1.80   6.83730
 1.60000    1.78     1.80   6.82770
 1.65000    1.78     1.80   6.82040
 1.70000    1.78     1.80   6.80630
 1.75000    1.78     1.80   6.79100
 1.80000    1.78     1.80   6.77730
 1.85000    1.78     1.81   6.76830
 1.90000    1.78     1.81   6.76680
 1.95000    1.78     1.81   6.77420
 2.00000    1.78     1.81   6.78460
 2.05000    1.78     1.81   6.79360
 2.10000    1.78     1.81   6.80350
 2.15000    1.78     1.81   6.80190
 2.20000    1.78     1.81   6.80290
 2.25000    1.78     1.81   6.80500
 2.30000    1.79     1.81   6.80010
 2.35000    1.79     1.81   6.80200
 2.40000    1.79     1.81   6.80140
 2.45000    1.79     1.82   6.79830
 2.50000    1.79     1.82   6.79470
 2.55000    1.79     1.82   6.79150
 2.60000    1.79     1.82   6.78860
 2.65000    1.79     1.82   6.78830
 2.70000    1.79     1.82   6.78100
 2.75000    1.79     1.82   6.77920
 2.80000    1.79     1.82   6.77310
 2.85000    1.79     1.82   6.76970
 2.90000    1.79     1.82   6.76400
 2.95000    1.79     1.82   6.76320
 3.00000    1.79     1.82   6.75920
 3.05000    1.79     1.82   6.74740
 3.10000    1.79     1.82   6.74010
 3.15000    1.79     1.82   6.72910
 3.20000    1.79     1.82   6.72460
 3.25000    1.79     1.82   6.71950
 3.30000    1.79     1.82   6.70950
 3.35000    1.79     1.82   6.70820
 3.40000    1.79     1.82   6.70450
 3.45000    1.79     1.82   6.69560
 3.50000    1.79     1.82   6.69270
 3.55000    1.79     1.82   6.69390
 3.60000    1.79     1.83   6.68960
 3.65000    1.79     1.83   6.68530
 3.70000    1.79     1.83   6.68360
 3.75000    1.79     1.83   6.68460
 3.80000    1.79     1.83   6.68370
 3.85000    1.79     1.83   6.68020
 3.90000    1.79     1.83   6.68330
 3.95000    1.79     1.83   6.68850
 4.00000    1.79     1.83   6.69370
 4.05000    1.79     1.83   6.69760
 4.10000    1.79     1.83   6.70110
 4.15000    1.79     1.83   6.70900
 4.20000    1.79     1.83   6.72020
 4.25000    1.79     1.83   6.73130
 4.30000    1.79     1.83   6.74120
 4.35000    1.80     1.83   6.75420
 4.40000    1.80     1.83   6.76260
 4.45000    1.80     1.83   6.77100
 4.50000    1.80     1.83   6.77690
 4.55000    1.80     1.83   6.78260
 4.60000    1.80     1.83   6.78590
 4.65000    1.80     1.83   6.78560
 4.70000    1.80     1.83   6.76800
 4.75000    1.80     1.83   6.75230
 4.80000    1.80     1.83   6.73240
 4.85000    1.80     1.84   6.71490
 4.90000    1.80     1.84   6.70270
 4.95000    1.80     1.84   6.69030
 5.00000    1.80     1.84   6.67820
 5.00000    1.80     1.84   6.67920
 5.01429    1.80     1.84   6.67550
 5.02857    1.80     1.84   6.66980
 5.04286    1.80     1.84   6.66710
 5.05714    1.80     1.84   6.66360
 5.07143    1.80     1.84   6.65740
 5.08571    1.80     1.84   6.65560
 5.10000    1.80     1.84   6.65010
 5.11429    1.80     1.84   6.64620
 5.12857    1.80     1.84   6.63410
 5.14286    1.80     1.84   6.62930
 5.15714    1.80     1.84   6.62450
 5.17143    1.80     1.84   6.62250
 5.18571    1.80     1.84   6.61820
 5.20000    1.80     1.84   6.60940
 5.21429    1.80     1.84   6.60920
 5.22857    1.80     1.84   6.60280
 5.24286    1.80     1.84   6.59680
 5.25714    1.80     1.84   6.58910
 5.27143    1.80     1.84   6.58750
 5.28571    1.80     1.84   6.58190
 5.30000    1.80     1.84   6.57500
 5.31429    1.80     1.84   6.57310
 5.32857    1.80     1.84   6.56880
 5.34286    1.80     1.84   6.56160
 5.35714    1.80     1.84   6.55490
 5.37143    1.80     1.84   6.55710
 5.38571    1.80     1.84   6.54870
 5.40000    1.80     1.84   6.54380
 5.41429    1.80     1.84   6.53970
 5.42857    1.80     1.84   6.54000
 5.44286    1.80     1.84   6.53500
 5.45714    1.80     1.84   6.53310
 5.47143    1.80     1.84   6.53120
 5.48571    1.80     1.84   6.52970
 5.50000    1.80     1.84   6.53180
 5.51429    1.80     1.84   6.52550
 5.52857    1.80     1.84   6.52580
 5.54286    1.80     1.84   6.52190
 5.55714    1.80     1.84   6.52020
 5.57143    1.80     1.84   6.51960
 5.58571    1.80     1.84   6.51870
 5.60000    1.80     1.84   6.51720
 5.61429    1.80     1.84   6.51500
 5.62857    1.80     1.84   6.51420
 5.64286    1.80     1.84   6.51420
 5.65714    1.80     1.84   6.51370
 5.67143    1.80     1.84   6.51370
 5.68571    1.80     1.84   6.51240
 5.70000    1.80     1.84   6.50900
 5.71429    1.80     1.84   6.50900
 5.72857    1.80     1.84   6.50540
 5.74286    1.80     1.84   6.50650
 5.75714    1.80     1.84   6.50330
 5.77143    1.80     1.84   6.50250
 5.78571    1.80     1.84   6.49870
 5.80000    1.80     1.84   6.49720
 5.81429    1.80     1.84   6.49890
 5.82857    1.80     1.84   6.49280
 5.84286    1.80     1.84   6.49140
 5.85714    1.80     1.84   6.48470
 5.87143    1.80     1.84   6.48600
 5.88571    1.80     1.84   6.47870
 5.90000    1.80     1.84   6.47610
 5.91429    1.80     1.84   6.47350
 5.92857    1.80     1.84   6.47200
 5.94286    1.80     1.84   6.46130
 5.95714    1.80     1.84   6.45590
 5.97143    1.80     1.84   6.45320
 5.98571    1.80     1.84   6.45050
 6.00000    1.80     1.84   6.44880
 6.01429    1.80     1.84   6.44600
 6.02857    1.80     1.84   6.44240
 6.04286    1.80     1.84   6.44120
 6.05714    1.80     1.84   6.43680
 6.07143    1.80     1.84   6.43740
 6.08571    1.80     1.84   6.43550
 6.10000    1.80     1.84   6.43290
 6.11429    1.80     1.84   6.42620
 6.12857    1.80     1.84   6.42450
 6.14286    1.80     1.84   6.41600
 6.15714    1.80     1.84   6.41100
 6.17143    1.80     1.84   6.40950
 6.18571    1.80     1.84   6.40470
 6.20000    1.80     1.84   6.39900
 6.21429    1.80     1.84   6.39530
 6.22857    1.80     1.84   6.39070
 6.24286    1.80     1.84   6.38350
 6.25714    1.80     1.84   6.38130
 6.27143    1.80     1.84   6.37830
 6.28571    1.80     1.84   6.37570
 6.30000    1.80     1.84   6.37310
 6.31429    1.80     1.84   6.37000
 6.32857    1.80     1.84   6.36860
 6.34286    1.80     1.84   6.36800
 6.35714    1.80     1.84   6.36230
 6.37143    1.80     1.84   6.35710
 6.38571    1.80     1.84   6.35470
 6.40000    1.80     1.84   6.35180
 6.41429    1.80     1.84   6.35040
 6.42857    1.80     1.84   6.34600
 6.44286    1.80     1.84   6.34660
 6.45714    1.80     1.84   6.34370
 6.47143    1.80     1.84   6.33770
 6.48571    1.80     1.84   6.33690
 6.50000    1.80     1.84   6.33130
 6.51429    1.80     1.84   6.33020
 6.52857    1.80     1.84   6.32710
 6.54286    1.80     1.84   6.32520
 6.55714    1.80     1.84   6.32040
 6.57143    1.80     1.84   6.31610
 6.58571    1.80     1.84   6.31730
 6.60000    1.80     1.84   6.31460
 6.61429    1.80     1.84   6.31320
 6.62857    1.80     1.84   6.30890
 6.64286    1.80     1.84   6.30780
 6.65714    1.80     1.84   6.30430
 6.67143    1.80     1.84   6.30330
 6.68571    1.80     1.84   6.29600
 6.70000    1.80     1.84   6.29430
 6.71429    1.80     1.84   6.29220
 6.72857    1.80     1.84   6.28950
 6.74286    1.80     1.84   6.28660
 6.75714    1.80     1.84   6.28130
 6.77143    1.80     1.84   6.28040
 6.78571    1.80     1.84   6.27690
 6.80000    1.80     1.84   6.26950
 6.81429    1.80     1.84   6.26640
 6.82857    1.80     1.84   6.26090
 6.84286    1.80     1.84   6.25910
 6.85714    1.80     1.85   6.25350
 6.87143    1.80     1.85   6.25220
 6.88571    1.80     1.85   6.24980
 6.90000    1.80     1.85   6.24530
 6.91429    1.80     1.85   6.24300
 6.92857    1.80     1.85   6.24050
 6.94286    1.80     1.85   6.23420
 6.95714    1.80     1.85   6.23190
 6.97143    1.80     1.85   6.21770
 6.98571    1.80     1.85   6.21550
 7.00000    1.80     1.85   6.20970
 7.00000    1.80     1.85   6.20900
 6.95000    1.80     1.85   6.21360
 6.90000    1.80     1.85   6.22060
 6.85000    1.80     1.85   6.22980
 6.80000    1.80     1.85   6.24180
 6.75000    1.80     1.85   6.24760
 6.70000    1.80     1.85   6.25750
 6.65000    1.80     1.84   6.27090
 6.60000    1.80     1.84   6.27760
 6.55000    1.80     1.84   6.28650
 6.50000    1.80     1.84   6.28690
 6.45000    1.80     1.84   6.29220
 6.40000    1.80     1.84   6.29540
 6.35000    1.80     1.84   6.29930
 6.30000    1.80     1.84   6.30850
 6.25000    1.80     1.84   6.31210
 6.20000    1.80     1.84   6.31940
 6.15000    1.80     1.84   6.32400
 6.10000    1.80     1.84   6.33020
 6.05000    1.80     1.84   6.33840
 6.00000    1.80     1.84   6.34530
 5.95000    1.80     1.84   6.34970
 5.90000    1.80     1.84   6.35640
 5.85000    1.80     1.84   6.36130
 5.80000    1.80     1.84   6.37190
 5.75000    1.80     1.84   6.37760
 5.70000    1.80     1.84   6.38660
 5.65000    1.80     1.84   6.39140
 5.60000    1.79     1.84   6.40420
 5.55000    1.79     1.83   6.41710
 5.50000    1.79     1.83   6.42830
 5.45000    1.79     1.83   6.43820
 5.40000    1.79     1.83   6.44950
 5.35000    1.79     1.83   6.45930
 5.30000    1.79     1.83   6.46730
 5.25000    1.79     1.83   6.47330
 5.20000    1.79     1.83   6.48170
 5.15000    1.79     1.83   6.48960
 5.10000    1.79     1.83   6.49220
 5.05000    1.79     1.83   6.49880
 5.00000    1.79     1.83   6.50190
 4.95000    1.79     1.83   6.50730
 4.90000    1.79     1.83   6.50750
 4.85000    1.79     1.83   6.51220
 4.80000    1.79     1.83   6.51120
 4.75000    1.79     1.83   6.51880
 4.70000    1.79     1.83   6.52310
 4.65000    1.79     1.83   6.52620
 4.60000    1.79     1.83   6.53500
 4.55000    1.79     1.83   6.54680
 4.50000    1.79     1.83   6.55360
 4.45000    1.79     1.83   6.56370
 4.40000    1.79     1.83   6.57540
 4.35000    1.79     1.83   6.58710
 4.30000    1.79     1.83   6.60020
 4.25000    1.79     1.83   6.61050
 4.20000    1.79     1.83   6.62240
 4.15000    1.79     1.83   6.63260
 4.10000    1.79     1.83   6.64670
 4.05000    1.79     1.83   6.66540
 4.00000    1.79     1.82   6.68160
 3.95000    1.79     1.82   6.70780
 3.90000    1.79     1.82   6.72910
 3.85000    1.79     1.82   6.74650
 3.80000    1.79     1.82   6.75400
 3.75000    1.79     1.82   6.76230
 3.70000    1.79     1.82   6.76630
 3.65000    1.79     1.82   6.77290
 3.60000    1.79     1.82   6.77250
 3.55000    1.79     1.82   6.76800
 3.50000    1.79     1.82   6.75930
 3.45000    1.79     1.82   6.75460
 3.40000    1.79     1.82   6.74420
 3.35000    1.79     1.82   6.72840
 3.30000    1.79     1.82   6.71400
 3.25000    1.79     1.82   6.69840
 3.20000    1.79     1.82   6.68720
 3.15000    1.79     1.82   6.67870
 3.10000    1.79     1.82   6.67460
 3.05000    1.79     1.82   6.67070
 3.00000    1.79     1.82   6.66970
 2.95000    1.79     1.82   6.66810
 2.90000    1.78     1.81   6.67060
 2.85000    1.78     1.81   6.67210
 2.80000    1.78     1.81   6.67280
 2.75000    1.78     1.81   6.67300
 2.70000    1.78     1.81   6.67430
 2.65000    1.78     1.81   6.68090
 2.60000    1.78     1.81   6.68410
 2.55000    1.78     1.81   6.69600
 2.50000    1.78     1.81   6.69690
 2.45000    1.78     1.81   6.70440
 2.40000    1.78     1.81   6.70670
 2.35000    1.78     1.81   6.71510
 2.30000    1.78     1.81   6.72120
 2.25000    1.78     1.81   6.72900
 2.20000    1.78     1.81   6.72760
 2.15000    1.78     1.81   6.72990
 2.10000    1.78     1.81   6.73130
 2.05000    1.78     1.81   6.72670
 2.00000    1.78     1.80   6.72170
 1.95000    1.78     1.80   6.71260
 1.90000    1.78     1.80   6.70630
 1.85000    1.78     1.80   6.71260
 1.80000    1.78     1.80   6.72270
 1.75000    1.78     1.80   6.74220
 1.70000    1.78     1.80   6.75850
 1.65000    1.78     1.80   6.77490
 1.60000    1.78     1.80   6.79030
 1.55000    1.78     1.80   6.79800
 1.50000    1.78     1.80   6.81050
 1.45000    1.78     1.80   6.81990
 1.40000    1.78     1.80   6.82760
 1.35000    1.78     1.80   6.83320
 1.30000    1.78     1.80   6.84510
 1.25000    1.78     1.80   6.85030
 1.20000    1.78     1.80   6.85900
 1.15000    1.78     1.80   6.86190
 1.10000    1.78     1.80   6.86980
 1.05000    1.78     1.80   6.87740
 1.00000    1.78     1.80   6.88340
 0.95000    1.78     1.80   6.89160
 0.90000    1.78     1.80   6.89560
 0.85000    1.78     1.80   6.89430
 0.80000    1.77     1.80   6.88970
 0.75000    1.77     1.80   6.89040
 0.70000    1.77     1.80   6.89000
 0.65000    1.77     1.80   6.89310
 0.60000    1.77     1.80   6.88850
 0.55000    1.77     1.79   6.89060
 0.50000    1.77     1.79   6.88990
 0.45000    1.77     1.79   6.89510
 0.40000    1.77     1.79   6.89230
 0.35000    1.77     1.79   6.89310
 0.30000    1.77     1.79   6.89490
 0.25000    1.77     1.79   6.89380
 0.20000    1.77     1.79   6.89480
 0.15000    1.77     1.79   6.89850
 0.10000    1.77     1.79   6.89640
 0.05000    1.77     1.79   6.89470
-0.00000    1.77     1.79   6.89180
