 Field[T] Tsmpl[K] Tcntr[K] Signal
 0.00000    1.78     1.80   4.29950
 0.05000    1.78     1.80   4.29930
 0.10000    1.78     1.80   4.29800
 0.15000    1.78     1.80   4.29950
 0.20000    1.78     1.80   4.30040
 0.25000    1.78     1.80   4.29630
 0.30000    1.78     1.80   4.29540
 0.35000    1.78     1.80   4.29640
 0.40000    1.78     1.80   4.29700
 0.45000    1.78     1.80   4.29940
 0.50000    1.78     1.80   4.30140
 0.55000    1.78     1.80   4.29550
 0.60000    1.78     1.80   4.29560
 0.65000    1.78     1.80   4.29330
 0.70000    1.78     1.80   4.29130
 0.75000    1.78     1.80   4.28810
 0.80000    1.78     1.80   4.28600
 0.85000    1.78     1.81   4.28650
 0.90000    1.78     1.81   4.28360
 0.95000    1.78     1.81   4.28180
 1.00000    1.78     1.81   4.27960
 1.05000    1.78     1.81   4.27840
 1.10000    1.78     1.81   4.27080
 1.15000    1.79     1.81   4.26570
 1.20000    1.79     1.81   4.26160
 1.25000    1.79     1.81   4.25950
 1.30000    1.79     1.81   4.25380
 1.35000    1.79     1.81   4.24790
 1.40000    1.79     1.81   4.24310
 1.45000    1.79     1.81   4.23790
 1.50000    1.79     1.81   4.22890
 1.55000    1.79     1.82   4.22440
 1.60000    1.79     1.82   4.21870
 1.65000    1.79     1.82   4.20850
 1.70000    1.79     1.82   4.19690
 1.75000    1.79     1.82   4.18950
 1.80000    1.79     1.82   4.18300
 1.85000    1.79     1.82   4.17800
 1.90000    1.79     1.82   4.17540
 1.95000    1.79     1.82   4.18180
 2.00000    1.79     1.82   4.18120
 2.05000    1.79     1.82   4.18660
 2.10000    1.79     1.82   4.18840
 2.15000    1.80     1.83   4.18920
 2.20000    1.80     1.83   4.18890
 2.25000    1.80     1.83   4.18450
 2.30000    1.80     1.83   4.18170
 2.35000    1.80     1.83   4.17380
 2.40000    1.80     1.83   4.17250
 2.45000    1.80     1.83   4.16520
 2.50000    1.80     1.83   4.15970
 2.55000    1.80     1.83   4.15520
 2.60000    1.80     1.83   4.15430
 2.65000    1.80     1.83   4.14910
 2.70000    1.80     1.83   4.14770
 2.75000    1.80     1.83   4.14230
 2.80000    1.80     1.83   4.14030
 2.85000    1.80     1.83   4.13400
 2.90000    1.80     1.83   4.13190
 2.95000    1.80     1.83   4.12890
 3.00000    1.80     1.83   4.12460
 3.05000    1.80     1.84   4.12410
 3.10000    1.80     1.84   4.12080
 3.15000    1.80     1.84   4.12140
 3.20000    1.80     1.84   4.11340
 3.25000    1.80     1.84   4.11260
 3.30000    1.80     1.84   4.11190
 3.35000    1.80     1.84   4.11170
 3.40000    1.80     1.84   4.10880
 3.45000    1.80     1.84   4.11170
 3.50000    1.80     1.84   4.11020
 3.55000    1.80     1.84   4.11210
 3.60000    1.80     1.84   4.11330
 3.65000    1.80     1.84   4.11710
 3.70000    1.80     1.84   4.11670
 3.75000    1.80     1.84   4.11860
 3.80000    1.80     1.84   4.12390
 3.85000    1.80     1.84   4.12680
 3.90000    1.80     1.84   4.12820
 3.95000    1.81     1.84   4.13210
 4.00000    1.81     1.84   4.13030
 4.05000    1.81     1.84   4.13150
 4.10000    1.81     1.84   4.12860
 4.15000    1.81     1.85   4.12310
 4.20000    1.81     1.85   4.11540
 4.25000    1.81     1.85   4.10740
 4.30000    1.81     1.85   4.09860
 4.35000    1.81     1.85   4.08940
 4.40000    1.81     1.85   4.07860
 4.45000    1.81     1.85   4.07290
 4.50000    1.81     1.85   4.06550
 4.55000    1.81     1.85   4.05960
 4.60000    1.81     1.85   4.05200
 4.65000    1.81     1.85   4.04270
 4.70000    1.81     1.85   4.03380
 4.75000    1.81     1.85   4.02680
 4.80000    1.81     1.85   4.01940
 4.85000    1.81     1.85   4.01250
 4.90000    1.81     1.85   4.00550
 4.95000    1.81     1.85   4.00140
 5.00000    1.81     1.85   3.99710
 5.00000    1.81     1.85   3.99760
 4.95000    1.81     1.85   4.00210
 4.90000    1.81     1.85   4.00290
 4.85000    1.81     1.85   4.00950
 4.80000    1.81     1.85   4.01540
 4.75000    1.81     1.85   4.01920
 4.70000    1.81     1.85   4.02790
 4.65000    1.81     1.85   4.03070
 4.60000    1.81     1.85   4.04060
 4.55000    1.81     1.85   4.05100
 4.50000    1.81     1.85   4.05620
 4.45000    1.81     1.85   4.06170
 4.40000    1.81     1.85   4.06970
 4.35000    1.81     1.85   4.07830
 4.30000    1.81     1.85   4.08630
 4.25000    1.81     1.84   4.09310
 4.20000    1.81     1.84   4.10000
 4.15000    1.80     1.84   4.10770
 4.10000    1.80     1.84   4.11570
 4.05000    1.80     1.84   4.12450
 4.00000    1.80     1.84   4.12840
 3.95000    1.80     1.84   4.13270
 3.90000    1.80     1.84   4.13480
 3.85000    1.80     1.84   4.14060
 3.80000    1.80     1.84   4.13630
 3.75000    1.80     1.84   4.13990
 3.70000    1.80     1.84   4.13790
 3.65000    1.80     1.84   4.13610
 3.60000    1.80     1.83   4.13070
 3.55000    1.80     1.83   4.12620
 3.50000    1.80     1.83   4.12610
 3.45000    1.80     1.83   4.12110
 3.40000    1.80     1.83   4.12170
 3.35000    1.80     1.83   4.11950
 3.30000    1.80     1.83   4.12110
 3.25000    1.80     1.83   4.12000
 3.20000    1.80     1.83   4.11980
 3.15000    1.80     1.83   4.12160
 3.10000    1.80     1.83   4.12250
 3.05000    1.80     1.83   4.12030
 3.00000    1.79     1.83   4.12340
 2.95000    1.79     1.83   4.12640
 2.90000    1.79     1.83   4.13070
 2.85000    1.79     1.83   4.13030
 2.80000    1.79     1.82   4.13390
 2.75000    1.79     1.82   4.13880
 2.70000    1.79     1.82   4.14160
 2.65000    1.79     1.82   4.14650
 2.60000    1.79     1.82   4.14860
 2.55000    1.79     1.82   4.15490
 2.50000    1.79     1.82   4.15700
 2.45000    1.79     1.82   4.16300
 2.40000    1.79     1.82   4.16860
 2.35000    1.79     1.82   4.17110
 2.30000    1.79     1.82   4.17350
 2.25000    1.79     1.82   4.18020
 2.20000    1.79     1.82   4.18120
 2.15000    1.79     1.82   4.18340
 2.10000    1.79     1.82   4.18660
 2.05000    1.79     1.82   4.18300
 2.00000    1.79     1.82   4.18340
 1.95000    1.79     1.82   4.17860
 1.90000    1.79     1.82   4.17180
 1.85000    1.79     1.82   4.17290
 1.80000    1.79     1.82   4.18140
 1.75000    1.79     1.82   4.18830
 1.70000    1.79     1.82   4.20010
 1.65000    1.79     1.82   4.20890
 1.60000    1.79     1.82   4.21380
 1.55000    1.79     1.82   4.22530
 1.50000    1.79     1.81   4.22730
 1.45000    1.79     1.81   4.23260
 1.40000    1.79     1.81   4.24100
 1.35000    1.79     1.81   4.24200
 1.30000    1.79     1.81   4.25220
 1.25000    1.79     1.81   4.25870
 1.20000    1.79     1.81   4.26330
 1.15000    1.79     1.81   4.26450
 1.10000    1.79     1.81   4.26830
 1.05000    1.79     1.81   4.27330
 1.00000    1.79     1.81   4.27550
 0.95000    1.79     1.81   4.28000
 0.90000    1.79     1.81   4.28090
 0.85000    1.79     1.81   4.28640
 0.80000    1.79     1.81   4.28540
 0.75000    1.79     1.81   4.29060
 0.70000    1.79     1.81   4.29350
 0.65000    1.79     1.81   4.29140
 0.60000    1.79     1.81   4.29690
 0.55000    1.79     1.81   4.29360
 0.50000    1.79     1.81   4.29810
 0.45000    1.79     1.81   4.30030
 0.40000    1.79     1.81   4.30030
 0.35000    1.79     1.81   4.30350
 0.30000    1.79     1.81   4.30390
 0.25000    1.79     1.81   4.30360
 0.20000    1.79     1.81   4.30660
 0.15000    1.78     1.81   4.30390
 0.10000    1.78     1.81   4.30950
 0.05000    1.78     1.81   4.30850
-0.00000    1.78     1.81   4.31140
