 Field[T] Tsmpl[K] Tcntr[K] Signal   Mirror[MM]
 0.00000    1.80     1.80   0.28374  -9.8666
 0.02000    1.80     1.80   0.28355  -9.8668
 0.04000    1.80     1.80   0.28362  -9.8675
 0.06000    1.80     1.80   0.28408  -9.8672
 0.08000    1.80     1.80   0.28301  -9.8664
 0.10000    1.80     1.80   0.28307  -9.8671
 0.12000    1.80     1.80   0.28230  -9.8665
 0.14000    1.80     1.80   0.28135  -9.8661
 0.16000    1.80     1.80   0.28229  -9.8671
 0.18000    1.80     1.80   0.28221  -9.8670
 0.20000    1.80     1.80   0.28265  -9.8669
 0.22000    1.80     1.80   0.28098  -9.8667
 0.24000    1.80     1.80   0.28128  -9.8672
 0.26000    1.80     1.80   0.28027  -9.8670
 0.28000    1.80     1.80   0.27908  -9.8668
 0.30000    1.80     1.80   0.27876  -9.8672
 0.32000    1.80     1.80   0.27614  -9.8670
 0.34000    1.80     1.80   0.27322  -9.8674
 0.36000    1.80     1.80   0.27082  -9.8681
 0.38000    1.80     1.80   0.27109  -9.8686
 0.40000    1.80     1.80   0.27259  -9.8694
 0.42000    1.80     1.80   0.27104  -9.8701
 0.44000    1.80     1.80   0.27202  -9.8713
 0.46000    1.80     1.80   0.27110  -9.8719
 0.48000    1.80     1.80   0.27198  -9.8722
 0.50000    1.80     1.80   0.27090  -9.8722
 0.52000    1.80     1.80   0.27253  -9.8731
 0.54000    1.80     1.80   0.27309  -9.8728
 0.56000    1.80     1.80   0.27424  -9.8739
 0.58000    1.80     1.80   0.27394  -9.8745
 0.60000    1.80     1.80   0.27440  -9.8744
 0.62000    1.80     1.80   0.27561  -9.8747
 0.64000    1.80     1.80   0.27727  -9.8760
 0.66000    1.80     1.80   0.27775  -9.8762
 0.68000    1.80     1.80   0.27890  -9.8758
 0.70000    1.80     1.80   0.28034  -9.8762
 0.72000    1.80     1.80   0.28314  -9.8772
 0.74000    1.80     1.80   0.28107  -9.8763
 0.76000    1.80     1.80   0.28400  -9.8776
 0.78000    1.80     1.80   0.28562  -9.8773
 0.80000    1.80     1.80   0.28508  -9.8782
 0.82000    1.80     1.80   0.28759  -9.8780
 0.84000    1.80     1.80   0.28634  -9.8772
 0.86000    1.80     1.80   0.28959  -9.8785
 0.88000    1.80     1.80   0.29003  -9.8773
 0.90000    1.80     1.80   0.29101  -9.8774
 0.92000    1.80     1.80   0.29136  -9.8784
 0.94000    1.80     1.80   0.29261  -9.8780
 0.96000    1.80     1.80   0.29351  -9.8781
 0.98000    1.80     1.80   0.29301  -9.8772
 1.00000    1.80     1.80   0.29348  -9.8771
 1.02000    1.80     1.80   0.29473  -9.8775
 1.04000    1.80     1.80   0.29518  -9.8776
 1.06000    1.80     1.80   0.29515  -9.8778
 1.08000    1.80     1.80   0.29448  -9.8770
 1.10000    1.80     1.80   0.29593  -9.8772
 1.12000    1.80     1.80   0.29539  -9.8769
 1.14000    1.80     1.80   0.29268  -9.8757
 1.16000    1.80     1.80   0.29562  -9.8763
 1.18000    1.80     1.80   0.29732  -9.8771
 1.20000    1.80     1.80   0.29709  -9.8771
 1.22000    1.80     1.80   0.29696  -9.8771
 1.24000    1.80     1.80   0.29656  -9.8766
 1.26000    1.80     1.80   0.29882  -9.8777
 1.28000    1.80     1.80   0.29808  -9.8775
 1.30000    1.80     1.80   0.29932  -9.8780
 1.32000    1.80     1.80   0.29927  -9.8776
 1.34000    1.80     1.80   0.29713  -9.8762
 1.36000    1.80     1.80   0.29852  -9.8763
 1.38000    1.80     1.80   0.29902  -9.8777
 1.40000    1.80     1.80   0.29661  -9.8762
 1.42000    1.80     1.80   0.29606  -9.8748
 1.44000    1.80     1.80   0.29937  -9.8761
 1.46000    1.80     1.80   0.29955  -9.8769
 1.48000    1.80     1.80   0.30071  -9.8776
 1.50000    1.80     1.80   0.30106  -9.8774
 1.52000    1.80     1.80   0.30071  -9.8776
 1.54000    1.80     1.80   0.29807  -9.8766
 1.56000    1.80     1.80   0.29853  -9.8767
 1.58000    1.80     1.80   0.30163  -9.8773
 1.60000    1.80     1.80   0.29949  -9.8770
 1.62000    1.80     1.80   0.29743  -9.8756
 1.64000    1.80     1.80   0.30011  -9.8770
 1.66000    1.80     1.80   0.29930  -9.8769
 1.68000    1.80     1.80   0.30034  -9.8768
 1.70000    1.80     1.80   0.30052  -9.8770
 1.72000    1.80     1.80   0.30181  -9.8777
 1.74000    1.80     1.80   0.30151  -9.8766
 1.76000    1.80     1.80   0.29901  -9.8757
 1.78000    1.80     1.80   0.30057  -9.8753
 1.80000    1.80     1.80   0.29914  -9.8751
 1.82000    1.80     1.80   0.29962  -9.8757
 1.84000    1.80     1.80   0.30297  -9.8775
 1.86000    1.80     1.80   0.30024  -9.8769
 1.88000    1.80     1.80   0.30023  -9.8767
 1.90000    1.80     1.80   0.29734  -9.8752
 1.92000    1.80     1.80   0.29880  -9.8758
 1.94000    1.80     1.80   0.30015  -9.8767
 1.96000    1.80     1.80   0.30105  -9.8770
 1.98000    1.80     1.80   0.30043  -9.8769
 2.00000    1.80     1.80   0.29868  -9.8768
 2.00000    1.80     1.80   0.29974  -9.8770
 1.98000    1.80     1.80   0.30154  -9.8771
 1.96000    1.80     1.80   0.30163  -9.8773
 1.94000    1.80     1.80   0.30239  -9.8767
 1.92000    1.80     1.80   0.30089  -9.8771
 1.90000    1.80     1.80   0.30102  -9.8774
 1.88000    1.80     1.80   0.30034  -9.8776
 1.86000    1.80     1.80   0.29982  -9.8770
 1.84000    1.80     1.80   0.29841  -9.8762
 1.82000    1.80     1.80   0.29900  -9.8767
 1.80000    1.80     1.80   0.30140  -9.8771
 1.78000    1.80     1.80   0.29861  -9.8764
 1.76000    1.80     1.80   0.29778  -9.8759
 1.74000    1.80     1.80   0.30063  -9.8768
 1.72000    1.80     1.80   0.29940  -9.8760
 1.70000    1.80     1.80   0.29930  -9.8757
 1.68000    1.80     1.80   0.30032  -9.8770
 1.66000    1.80     1.80   0.29778  -9.8764
 1.64000    1.80     1.80   0.29824  -9.8759
 1.62000    1.80     1.80   0.29586  -9.8752
 1.60000    1.80     1.80   0.29737  -9.8765
 1.58000    1.80     1.80   0.29818  -9.8763
 1.56000    1.80     1.80   0.29875  -9.8773
 1.54000    1.80     1.80   0.29952  -9.8773
 1.52000    1.80     1.80   0.29937  -9.8773
 1.50000    1.80     1.80   0.29837  -9.8772
 1.48000    1.80     1.80   0.29937  -9.8772
 1.46000    1.80     1.80   0.29932  -9.8776
 1.44000    1.80     1.80   0.29999  -9.8777
 1.42000    1.80     1.80   0.29841  -9.8775
 1.40000    1.80     1.80   0.29802  -9.8773
 1.38000    1.80     1.80   0.29647  -9.8768
 1.36000    1.80     1.80   0.29758  -9.8774
 1.34000    1.80     1.80   0.29641  -9.8769
 1.32000    1.80     1.80   0.29758  -9.8775
 1.30000    1.80     1.80   0.29606  -9.8764
 1.28000    1.80     1.80   0.29614  -9.8765
 1.26000    1.80     1.80   0.29629  -9.8770
 1.24000    1.80     1.80   0.29533  -9.8759
 1.22000    1.80     1.80   0.29636  -9.8771
 1.20000    1.80     1.80   0.29502  -9.8764
 1.18000    1.80     1.80   0.29438  -9.8756
 1.16000    1.80     1.80   0.29317  -9.8756
 1.14000    1.80     1.80   0.29214  -9.8765
 1.12000    1.80     1.80   0.29419  -9.8766
 1.10000    1.80     1.80   0.29553  -9.8772
 1.08000    1.80     1.80   0.29426  -9.8770
 1.06000    1.80     1.80   0.29458  -9.8774
 1.04000    1.80     1.80   0.29336  -9.8773
 1.02000    1.80     1.80   0.29354  -9.8772
 1.00000    1.80     1.80   0.29333  -9.8773
 0.98000    1.80     1.80   0.29344  -9.8775
 0.96000    1.80     1.80   0.29302  -9.8774
 0.94000    1.80     1.80   0.29333  -9.8778
 0.92000    1.80     1.80   0.29064  -9.8769
 0.90000    1.80     1.80   0.28909  -9.8768
 0.88000    1.80     1.80   0.28991  -9.8770
 0.86000    1.80     1.80   0.28876  -9.8770
 0.84000    1.80     1.80   0.28743  -9.8766
 0.82000    1.80     1.80   0.28718  -9.8771
 0.80000    1.80     1.80   0.28596  -9.8771
 0.78000    1.80     1.80   0.28517  -9.8766
 0.76000    1.80     1.80   0.28294  -9.8755
 0.74000    1.80     1.80   0.28193  -9.8750
 0.72000    1.80     1.80   0.28257  -9.8754
 0.70000    1.80     1.80   0.28073  -9.8754
 0.68000    1.80     1.80   0.27943  -9.8744
 0.66000    1.80     1.80   0.27756  -9.8739
 0.64000    1.80     1.80   0.27850  -9.8739
 0.62000    1.80     1.80   0.27820  -9.8747
 0.60000    1.80     1.80   0.27652  -9.8740
 0.58000    1.80     1.80   0.27686  -9.8741
 0.56000    1.80     1.80   0.27532  -9.8734
 0.54000    1.80     1.80   0.27635  -9.8733
 0.52000    1.80     1.80   0.27594  -9.8724
 0.50000    1.80     1.80   0.27399  -9.8720
 0.48000    1.80     1.80   0.27404  -9.8709
 0.46000    1.80     1.80   0.27344  -9.8705
 0.44000    1.80     1.80   0.27303  -9.8695
 0.42000    1.80     1.80   0.27332  -9.8690
 0.40000    1.80     1.80   0.27498  -9.8691
 0.38000    1.80     1.80   0.27348  -9.8678
 0.36000    1.80     1.80   0.27598  -9.8681
 0.34000    1.80     1.80   0.27689  -9.8673
 0.32000    1.80     1.80   0.27871  -9.8664
 0.30000    1.80     1.80   0.28146  -9.8660
 0.28000    1.80     1.80   0.28314  -9.8661
 0.26000    1.80     1.80   0.28546  -9.8664
 0.24000    1.80     1.80   0.28554  -9.8652
 0.22000    1.80     1.80   0.28831  -9.8664
 0.20000    1.80     1.80   0.28861  -9.8666
 0.18000    1.80     1.80   0.28953  -9.8660
 0.16000    1.80     1.80   0.29088  -9.8668
 0.14000    1.80     1.80   0.29148  -9.8668
 0.12000    1.80     1.80   0.29241  -9.8676
 0.10000    1.80     1.80   0.29127  -9.8661
 0.08000    1.80     1.80   0.28998  -9.8660
 0.06000    1.80     1.80   0.29120  -9.8666
 0.04000    1.80     1.80   0.29199  -9.8673
 0.02000    1.80     1.80   0.29263  -9.8673
 -0.00000    1.80     1.80   0.29232  -9.8664
