 Field[T] Tsmpl[K] Tcntr[K] Signal   Mirror[MM]
 0.00000    1.86     1.86   0.29596  -9.8723
 0.05000    1.86     1.86   0.29578  -9.8718
 0.10000    1.86     1.86   0.29550  -9.8718
 0.15000    1.86     1.86   0.29570  -9.8718
 0.20000    1.86     1.86   0.29539  -9.8723
 0.25000    1.86     1.86   0.29493  -9.8723
 0.30000    1.86     1.86   0.29433  -9.8723
 0.35000    1.86     1.86   0.29361  -9.8738
 0.40000    1.86     1.86   0.29404  -9.8753
 0.45000    1.86     1.86   0.29417  -9.8764
 0.50000    1.86     1.86   0.29459  -9.8773
 0.55000    1.86     1.86   0.29483  -9.8778
 0.60000    1.86     1.86   0.29511  -9.8783
 0.65000    1.86     1.86   0.29567  -9.8788
 0.70000    1.86     1.86   0.29596  -9.8788
 0.75000    1.86     1.86   0.29642  -9.8788
 0.80000    1.86     1.86   0.29679  -9.8788
 0.85000    1.86     1.86   0.29733  -9.8788
 0.90000    1.86     1.86   0.29736  -9.8778
 0.95000    1.86     1.86   0.29775  -9.8778
 1.00000    1.86     1.86   0.29777  -9.8778
 1.05000    1.86     1.86   0.29785  -9.8773
 1.10000    1.86     1.86   0.29800  -9.8773
 1.15000    1.86     1.86   0.29792  -9.8773
 1.20000    1.86     1.86   0.29780  -9.8773
 1.25000    1.86     1.86   0.29803  -9.8768
 1.30000    1.86     1.86   0.29769  -9.8768
 1.35000    1.86     1.86   0.29769  -9.8768
 1.40000    1.86     1.86   0.29772  -9.8763
 1.45000    1.86     1.86   0.29774  -9.8761
 1.50000    1.86     1.86   0.29793  -9.8763
 1.55000    1.86     1.86   0.29785  -9.8763
 1.60000    1.86     1.86   0.29809  -9.8763
 1.65000    1.86     1.86   0.29783  -9.8758
 1.70000    1.86     1.86   0.29778  -9.8758
 1.75000    1.86     1.86   0.29782  -9.8758
 1.80000    1.86     1.86   0.29774  -9.8758
 1.85000    1.86     1.86   0.29741  -9.8758
 1.90000    1.86     1.86   0.29762  -9.8758
 1.95000    1.86     1.86   0.29765  -9.8758
 2.00000    1.86     1.86   0.29777  -9.8758
 2.05000    1.86     1.86   0.29757  -9.8753
 2.10000    1.86     1.86   0.29777  -9.8753
 2.15000    1.86     1.86   0.29767  -9.8753
 2.20000    1.86     1.86   0.29754  -9.8753
 2.25000    1.86     1.86   0.29756  -9.8753
 2.30000    1.86     1.86   0.29713  -9.8753
 2.35000    1.86     1.86   0.29752  -9.8753
 2.40000    1.86     1.86   0.29718  -9.8754
 2.45000    1.86     1.86   0.29715  -9.8758
 2.50000    1.86     1.86   0.29702  -9.8753
 2.55000    1.86     1.86   0.29723  -9.8753
 2.60000    1.86     1.86   0.29710  -9.8752
 2.65000    1.86     1.86   0.29703  -9.8748
 2.70000    1.86     1.86   0.29730  -9.8758
 2.75000    1.86     1.86   0.29702  -9.8748
 2.80000    1.86     1.86   0.29721  -9.8751
 2.85000    1.86     1.86   0.29703  -9.8753
 2.90000    1.86     1.86   0.29695  -9.8753
 2.95000    1.86     1.86   0.29663  -9.8753
 3.00000    1.86     1.86   0.29694  -9.8753
 3.05000    1.86     1.86   0.29687  -9.8753
 3.10000    1.86     1.86   0.29681  -9.8753
 3.15000    1.86     1.86   0.29689  -9.8753
 3.20000    1.86     1.86   0.29677  -9.8753
 3.25000    1.86     1.86   0.29684  -9.8753
 3.30000    1.86     1.86   0.29674  -9.8753
 3.35000    1.86     1.86   0.29668  -9.8753
 3.40000    1.86     1.86   0.29653  -9.8750
 3.45000    1.86     1.86   0.29673  -9.8753
 3.50000    1.86     1.86   0.29663  -9.8748
 3.55000    1.86     1.86   0.29663  -9.8748
 3.60000    1.86     1.86   0.29633  -9.8749
 3.65000    1.86     1.86   0.29611  -9.8753
 3.70000    1.86     1.86   0.29638  -9.8753
 3.75000    1.86     1.86   0.29643  -9.8753
 3.80000    1.86     1.86   0.29607  -9.8753
 3.85000    1.86     1.86   0.29627  -9.8753
 3.90000    1.86     1.86   0.29614  -9.8753
 3.95000    1.86     1.86   0.29615  -9.8753
 4.00000    1.86     1.86   0.29578  -9.8753
 4.05000    1.86     1.86   0.29586  -9.8749
 4.10000    1.86     1.86   0.29599  -9.8752
 4.15000    1.86     1.86   0.29583  -9.8753
 4.20000    1.86     1.86   0.29555  -9.8753
 4.25000    1.86     1.86   0.29571  -9.8753
 4.30000    1.86     1.86   0.29565  -9.8753
 4.35000    1.86     1.86   0.29547  -9.8753
 4.40000    1.86     1.86   0.29510  -9.8754
 4.45000    1.86     1.86   0.29540  -9.8758
 4.50000    1.86     1.86   0.29547  -9.8758
 4.55000    1.86     1.86   0.29532  -9.8753
 4.60000    1.86     1.86   0.29539  -9.8753
 4.65000    1.86     1.86   0.29496  -9.8753
 4.70000    1.86     1.86   0.29537  -9.8753
 4.75000    1.86     1.86   0.29537  -9.8753
 4.80000    1.86     1.86   0.29534  -9.8753
 4.85000    1.86     1.86   0.29519  -9.8753
 4.90000    1.86     1.86   0.29534  -9.8753
 4.95000    1.86     1.86   0.29536  -9.8753
 5.00000    1.86     1.86   0.29513  -9.8753
 5.05000    1.86     1.86   0.29493  -9.8753
 5.10000    1.86     1.86   0.29510  -9.8756
 5.15000    1.86     1.86   0.29506  -9.8753
 5.20000    1.86     1.86   0.29492  -9.8753
 5.25000    1.86     1.86   0.29480  -9.8753
 5.30000    1.86     1.86   0.29488  -9.8753
 5.35000    1.86     1.86   0.29490  -9.8753
 5.40000    1.86     1.86   0.29519  -9.8758
 5.45000    1.86     1.86   0.29480  -9.8758
 5.50000    1.86     1.86   0.29480  -9.8753
 5.55000    1.86     1.86   0.29475  -9.8753
 5.60000    1.86     1.86   0.29464  -9.8753
 5.65000    1.86     1.86   0.29479  -9.8753
 5.70000    1.86     1.86   0.29443  -9.8753
 5.75000    1.86     1.86   0.29466  -9.8754
 5.80000    1.86     1.86   0.29452  -9.8753
 5.85000    1.86     1.86   0.29423  -9.8753
 5.90000    1.86     1.86   0.29438  -9.8753
 5.95000    1.86     1.86   0.29441  -9.8753
 6.00000    1.86     1.86   0.29443  -9.8753
 6.05000    1.86     1.86   0.29459  -9.8753
 6.15000    1.86     1.86   0.29417  -9.8749
 6.20000    1.86     1.86   0.29412  -9.8751
 6.25000    1.86     1.86   0.29415  -9.8749
 6.30000    1.86     1.86   0.29420  -9.8747
 6.35000    1.86     1.86   0.29436  -9.8747
 6.40000    1.86     1.86   0.29387  -9.8751
 6.45000    1.86     1.86   0.29395  -9.8748
 6.50000    1.86     1.86   0.29421  -9.8748
 6.55000    1.86     1.86   0.29394  -9.8748
 6.60000    1.86     1.86   0.29379  -9.8747
 6.65000    1.86     1.86   0.29364  -9.8747
 6.70000    1.86     1.86   0.29379  -9.8748
 6.75000    1.86     1.86   0.29358  -9.8748
 6.80000    1.86     1.86   0.29373  -9.8749
 6.85000    1.86     1.86   0.29377  -9.8750
 6.90000    1.86     1.86   0.29361  -9.8748
 6.95000    1.86     1.86   0.29361  -9.8746
 7.00000    1.86     1.86   0.29350  -9.8748
 7.00000    1.86     1.86   0.29320  -9.8746
 6.95000    1.86     1.86   0.29364  -9.8748
 6.90000    1.86     1.86   0.29366  -9.8749
 6.85000    1.86     1.86   0.29356  -9.8751
 6.80000    1.86     1.86   0.29361  -9.8752
 6.75000    1.86     1.86   0.29360  -9.8751
 6.70000    1.86     1.86   0.29374  -9.8749
 6.65000    1.86     1.86   0.29392  -9.8750
 6.60000    1.86     1.86   0.29379  -9.8747
 6.55000    1.86     1.86   0.29355  -9.8749
 6.50000    1.86     1.86   0.29402  -9.8748
 6.45000    1.86     1.86   0.29405  -9.8751
 6.40000    1.86     1.86   0.29387  -9.8751
 6.35000    1.86     1.86   0.29382  -9.8750
 6.30000    1.86     1.86   0.29392  -9.8751
 6.25000    1.86     1.86   0.29412  -9.8752
 6.20000    1.86     1.86   0.29407  -9.8754
 6.15000    1.86     1.86   0.29400  -9.8753
 6.10000    1.86     1.86   0.29394  -9.8753
 6.05000    1.86     1.86   0.29408  -9.8756
 6.00000    1.86     1.86   0.29415  -9.8755
 5.95000    1.86     1.86   0.29408  -9.8754
 5.90000    1.86     1.86   0.29415  -9.8754
 5.85000    1.86     1.86   0.29425  -9.8756
 5.80000    1.86     1.86   0.29413  -9.8758
 5.75000    1.86     1.86   0.29412  -9.8756
 5.70000    1.86     1.86   0.29407  -9.8754
 5.65000    1.86     1.86   0.29431  -9.8759
 5.60000    1.86     1.86   0.29410  -9.8761
 5.55000    1.86     1.86   0.29425  -9.8760
 5.50000    1.86     1.86   0.29449  -9.8759
 5.45000    1.86     1.86   0.29430  -9.8761
 5.40000    1.86     1.86   0.29430  -9.8761
 5.35000    1.86     1.86   0.29399  -9.8763
 5.30000    1.86     1.86   0.29418  -9.8760
 5.25000    1.86     1.86   0.29415  -9.8761
 5.20000    1.86     1.86   0.29448  -9.8761
 5.15000    1.86     1.86   0.29426  -9.8761
 5.10000    1.86     1.86   0.29448  -9.8759
 5.05000    1.86     1.86   0.29435  -9.8760
 5.00000    1.86     1.86   0.29444  -9.8760
 4.95000    1.86     1.86   0.29405  -9.8762
 4.90000    1.86     1.86   0.29456  -9.8761
 4.85000    1.86     1.86   0.29444  -9.8763
 4.80000    1.86     1.86   0.29443  -9.8761
 4.75000    1.86     1.86   0.29459  -9.8760
 4.70000    1.86     1.86   0.29457  -9.8760
 4.65000    1.86     1.86   0.29472  -9.8761
 4.60000    1.86     1.86   0.29469  -9.8761
 4.55000    1.86     1.86   0.29449  -9.8761
 4.50000    1.86     1.86   0.29456  -9.8762
 4.45000    1.86     1.86   0.29477  -9.8761
 4.40000    1.86     1.86   0.29467  -9.8761
 4.35000    1.86     1.86   0.29454  -9.8760
 4.30000    1.86     1.86   0.29496  -9.8760
 4.25000    1.86     1.86   0.29470  -9.8759
 4.20000    1.86     1.86   0.29474  -9.8759
 4.15000    1.86     1.86   0.29470  -9.8760
 4.10000    1.86     1.86   0.29498  -9.8759
 4.05000    1.86     1.86   0.29493  -9.8762
 4.00000    1.86     1.86   0.29505  -9.8763
 3.95000    1.86     1.86   0.29518  -9.8765
 3.90000    1.86     1.86   0.29511  -9.8760
 3.85000    1.86     1.86   0.29521  -9.8761
 3.80000    1.86     1.86   0.29531  -9.8760
 3.75000    1.86     1.86   0.29529  -9.8758
 3.70000    1.86     1.86   0.29480  -9.8757
 3.65000    1.86     1.86   0.29513  -9.8762
 3.60000    1.86     1.86   0.29531  -9.8760
 3.55000    1.86     1.86   0.29514  -9.8763
 3.50000    1.86     1.86   0.29503  -9.8762
 3.45000    1.86     1.86   0.29496  -9.8765
 3.40000    1.86     1.86   0.29549  -9.8766
 3.35000    1.86     1.86   0.29524  -9.8763
 3.30000    1.86     1.86   0.29547  -9.8763
 3.25000    1.86     1.86   0.29547  -9.8764
 3.20000    1.86     1.86   0.29549  -9.8765
 3.15000    1.86     1.86   0.29537  -9.8768
 3.10000    1.86     1.86   0.29558  -9.8766
 3.05000    1.86     1.86   0.29560  -9.8760
 3.00000    1.86     1.86   0.29563  -9.8761
 2.95000    1.86     1.86   0.29580  -9.8762
 2.90000    1.86     1.86   0.29563  -9.8762
 2.85000    1.86     1.86   0.29588  -9.8764
 2.80000    1.86     1.86   0.29571  -9.8765
 2.75000    1.86     1.86   0.29593  -9.8763
 2.70000    1.86     1.86   0.29563  -9.8765
 2.65000    1.86     1.86   0.29588  -9.8768
 2.60000    1.86     1.86   0.29558  -9.8765
 2.55000    1.86     1.86   0.29560  -9.8766
 2.50000    1.86     1.86   0.29599  -9.8765
 2.45000    1.86     1.86   0.29591  -9.8767
 2.40000    1.86     1.86   0.29606  -9.8767
 2.35000    1.86     1.86   0.29578  -9.8768
 2.30000    1.86     1.86   0.29583  -9.8766
 2.25000    1.86     1.86   0.29591  -9.8767
 2.20000    1.86     1.86   0.29598  -9.8767
 2.15000    1.86     1.86   0.29607  -9.8766
 2.10000    1.86     1.86   0.29617  -9.8767
 2.05000    1.86     1.86   0.29617  -9.8768
 2.00000    1.86     1.86   0.29589  -9.8768
 1.95000    1.86     1.86   0.29588  -9.8767
 1.90000    1.86     1.86   0.29611  -9.8768
 1.85000    1.86     1.86   0.29606  -9.8769
 1.80000    1.86     1.86   0.29584  -9.8768
 1.75000    1.86     1.86   0.29591  -9.8769
 1.70000    1.86     1.86   0.29589  -9.8768
 1.65000    1.86     1.86   0.29591  -9.8769
 1.60000    1.86     1.86   0.29601  -9.8770
 1.55000    1.86     1.86   0.29591  -9.8771
 1.50000    1.86     1.86   0.29575  -9.8771
 1.45000    1.86     1.86   0.29583  -9.8770
 1.40000    1.86     1.86   0.29607  -9.8768
 1.35000    1.86     1.86   0.29580  -9.8772
 1.30000    1.86     1.86   0.29557  -9.8773
 1.25000    1.86     1.86   0.29580  -9.8773
 1.20000    1.86     1.86   0.29583  -9.8777
 1.15000    1.86     1.86   0.29594  -9.8778
 1.10000    1.86     1.86   0.29565  -9.8778
 1.05000    1.86     1.86   0.29563  -9.8777
 1.00000    1.86     1.86   0.29540  -9.8780
 0.95000    1.86     1.86   0.29526  -9.8781
 0.90000    1.86     1.86   0.29524  -9.8785
 0.85000    1.86     1.86   0.29483  -9.8787
 0.80000    1.86     1.86   0.29482  -9.8788
 0.75000    1.86     1.86   0.29397  -9.8788
 0.70000    1.86     1.86   0.29363  -9.8786
 0.65000    1.86     1.86   0.29330  -9.8785
 0.60000    1.86     1.86   0.29267  -9.8780
 0.55000    1.86     1.86   0.29219  -9.8775
 0.50000    1.86     1.86   0.29213  -9.8769
 0.45000    1.86     1.86   0.29143  -9.8762
 0.40000    1.86     1.86   0.29135  -9.8753
 0.35000    1.86     1.86   0.29156  -9.8742
 0.30000    1.86     1.86   0.29175  -9.8723
 0.25000    1.86     1.86   0.29258  -9.8719
 0.20000    1.86     1.86   0.29255  -9.8720
 0.15000    1.86     1.86   0.29317  -9.8717
 0.10000    1.86     1.86   0.29312  -9.8718
 0.05000    1.86     1.86   0.29337  -9.8716
 -0.00000    1.86     1.86   0.29317  -9.8719
 -0.05000    1.86     1.86   0.29327  -9.8716
 -0.10000    1.86     1.86   0.29299  -9.8716
 -0.15000    1.86     1.86   0.29320  -9.8717
 -0.20000    1.86     1.86   0.29299  -9.8716
 -0.25000    1.86     1.86   0.29327  -9.8716
 -0.30000    1.86     1.86   0.29245  -9.8716
 -0.35000    1.86     1.86   0.29195  -9.8725
 -0.40000    1.86     1.86   0.29213  -9.8738
 -0.45000    1.86     1.86   0.29234  -9.8751
 -0.50000    1.86     1.86   0.29268  -9.8757
 -0.55000    1.86     1.86   0.29317  -9.8762
 -0.60000    1.86     1.86   0.29381  -9.8767
 -0.65000    1.86     1.86   0.29438  -9.8769
 -0.70000    1.86     1.86   0.29443  -9.8771
 -0.75000    1.86     1.86   0.29527  -9.8769
 -0.80000    1.86     1.86   0.29581  -9.8767
 -0.85000    1.86     1.86   0.29604  -9.8766
 -0.90000    1.86     1.86   0.29624  -9.8762
 -0.95000    1.86     1.86   0.29669  -9.8758
 -1.00000    1.86     1.86   0.29679  -9.8753
 -1.05000    1.86     1.86   0.29713  -9.8753
 -1.10000    1.86     1.86   0.29717  -9.8753
 -1.15000    1.86     1.86   0.29741  -9.8749
 -1.20000    1.86     1.86   0.29726  -9.8746
 -1.25000    1.86     1.86   0.29741  -9.8746
 -1.30000    1.86     1.86   0.29739  -9.8746
 -1.35000    1.86     1.86   0.29782  -9.8747
 -1.40000    1.86     1.86   0.29778  -9.8746
 -1.45000    1.86     1.86   0.29767  -9.8743
 -1.50000    1.86     1.86   0.29785  -9.8743
 -1.55000    1.86     1.86   0.29775  -9.8743
 -1.60000    1.86     1.86   0.29777  -9.8741
 -1.65000    1.86     1.86   0.29826  -9.8741
 -1.70000    1.86     1.86   0.29806  -9.8740
 -1.75000    1.86     1.86   0.29819  -9.8738
 -1.80000    1.86     1.86   0.29844  -9.8739
 -1.85000    1.86     1.86   0.29849  -9.8739
 -1.90000    1.86     1.86   0.29829  -9.8739
 -1.95000    1.86     1.86   0.29853  -9.8739
 -2.00000    1.86     1.86   0.29853  -9.8741
 -2.05000    1.86     1.86   0.29850  -9.8739
 -2.10000    1.86     1.86   0.29870  -9.8738
 -2.15000    1.86     1.86   0.29862  -9.8740
 -2.20000    1.86     1.86   0.29866  -9.8742
 -2.25000    1.86     1.86   0.29902  -9.8741
 -2.30000    1.86     1.86   0.29909  -9.8736
 -2.35000    1.86     1.86   0.29925  -9.8738
 -2.40000    1.86     1.86   0.29897  -9.8738
 -2.45000    1.86     1.86   0.29906  -9.8737
 -2.50000    1.86     1.86   0.29909  -9.8738
 -2.55000    1.86     1.86   0.29941  -9.8738
 -2.60000    1.86     1.86   0.29946  -9.8739
 -2.65000    1.86     1.86   0.29928  -9.8737
 -2.70000    1.86     1.86   0.29948  -9.8739
 -2.75000    1.86     1.86   0.29946  -9.8740
 -2.80000    1.86     1.86   0.29930  -9.8740
 -2.85000    1.86     1.86   0.29963  -9.8739
 -2.90000    1.86     1.86   0.29974  -9.8739
 -2.95000    1.86     1.86   0.29995  -9.8738
 -3.00000    1.86     1.86   0.29995  -9.8738
 -3.05000    1.86     1.86   0.29989  -9.8739
 -3.10000    1.86     1.86   0.30026  -9.8737
 -3.15000    1.86     1.86   0.30000  -9.8740
 -3.20000    1.86     1.86   0.30033  -9.8738
 -3.25000    1.86     1.86   0.30005  -9.8739
 -3.30000    1.86     1.86   0.30015  -9.8738
 -3.35000    1.86     1.86   0.30033  -9.8738
 -3.40000    1.86     1.86   0.30010  -9.8737
 -3.45000    1.86     1.86   0.30046  -9.8737
 -3.50000    1.86     1.86   0.30090  -9.8735
 -3.55000    1.86     1.86   0.30047  -9.8739
 -3.60000    1.86     1.86   0.30083  -9.8739
 -3.65000    1.86     1.86   0.30064  -9.8739
 -3.70000    1.86     1.86   0.30059  -9.8740
 -3.75000    1.86     1.86   0.30065  -9.8739
 -3.80000    1.86     1.86   0.30069  -9.8738
 -3.85000    1.86     1.86   0.30088  -9.8739
 -3.90000    1.86     1.86   0.30065  -9.8739
 -3.95000    1.86     1.86   0.30088  -9.8741
 -4.00000    1.86     1.86   0.30077  -9.8741
 -4.05000    1.86     1.86   0.30087  -9.8738
 -4.10000    1.86     1.86   0.30108  -9.8737
 -4.15000    1.86     1.86   0.30078  -9.8739
 -4.20000    1.86     1.86   0.30139  -9.8740
 -4.25000    1.86     1.86   0.30135  -9.8737
 -4.30000    1.86     1.86   0.30152  -9.8741
 -4.35000    1.86     1.86   0.30144  -9.8739
 -4.40000    1.86     1.86   0.30142  -9.8740
 -4.45000    1.86     1.86   0.30148  -9.8742
 -4.50000    1.86     1.86   0.30168  -9.8742
 -4.55000    1.86     1.86   0.30186  -9.8741
 -4.60000    1.86     1.86   0.30170  -9.8741
 -4.65000    1.86     1.86   0.30214  -9.8740
 -4.70000    1.86     1.86   0.30191  -9.8741
 -4.75000    1.86     1.86   0.30181  -9.8742
 -4.80000    1.86     1.86   0.30201  -9.8743
 -4.85000    1.86     1.86   0.30214  -9.8742
 -4.90000    1.86     1.86   0.30194  -9.8742
 -4.95000    1.86     1.86   0.30206  -9.8743
 -5.00000    1.86     1.86   0.30225  -9.8744
 -5.05000    1.86     1.86   0.30217  -9.8744
 -5.10000    1.86     1.86   0.30261  -9.8743
 -5.15000    1.86     1.86   0.30251  -9.8744
 -5.20000    1.86     1.86   0.30281  -9.8742
 -5.25000    1.86     1.86   0.30240  -9.8743
 -5.30000    1.86     1.86   0.30246  -9.8743
 -5.35000    1.86     1.86   0.30282  -9.8743
 -5.40000    1.86     1.86   0.30250  -9.8744
 -5.45000    1.86     1.86   0.30272  -9.8744
 -5.50000    1.86     1.86   0.30297  -9.8740
 -5.55000    1.86     1.86   0.30264  -9.8742
 -5.60000    1.86     1.86   0.30240  -9.8739
 -5.65000    1.86     1.86   0.30279  -9.8739
 -5.70000    1.86     1.86   0.30316  -9.8744
 -5.75000    1.86     1.86   0.30316  -9.8743
 -5.80000    1.86     1.86   0.30328  -9.8746
 -5.85000    1.86     1.86   0.30316  -9.8746
 -5.90000    1.86     1.86   0.30331  -9.8742
 -5.95000    1.86     1.86   0.30331  -9.8744
 -6.00000    1.86     1.86   0.30333  -9.8745
 -6.05000    1.86     1.86   0.30344  -9.8744
 -6.10000    1.86     1.86   0.30352  -9.8744
 -6.15000    1.86     1.86   0.30355  -9.8743
 -6.20000    1.86     1.86   0.30367  -9.8744
 -6.25000    1.86     1.86   0.30399  -9.8742
 -6.30000    1.86     1.86   0.30375  -9.8742
 -6.35000    1.86     1.86   0.30369  -9.8740
 -6.40000    1.86     1.86   0.30385  -9.8741
 -6.45000    1.86     1.86   0.30373  -9.8742
 -6.50000    1.86     1.86   0.30385  -9.8741
 -6.55000    1.86     1.86   0.30355  -9.8740
 -6.60000    1.86     1.86   0.30393  -9.8741
 -6.65000    1.86     1.86   0.30349  -9.8737
 -6.70000    1.86     1.86   0.30382  -9.8738
 -6.75000    1.86     1.86   0.30391  -9.8741
 -6.80000    1.86     1.86   0.30404  -9.8740
 -6.85000    1.86     1.86   0.30419  -9.8742
 -6.90000    1.86     1.86   0.30396  -9.8739
 -6.95000    1.86     1.86   0.30401  -9.8740
 -7.00000    1.86     1.86   0.30417  -9.8738
 -7.00000    1.86     1.86   0.30422  -9.8736
 -6.95000    1.86     1.86   0.30391  -9.8736
 -6.90000    1.86     1.86   0.30388  -9.8738
 -6.85000    1.86     1.86   0.30383  -9.8740
 -6.80000    1.86     1.86   0.30419  -9.8741
 -6.75000    1.86     1.86   0.30386  -9.8738
 -6.70000    1.86     1.86   0.30372  -9.8743
 -6.65000    1.86     1.86   0.30404  -9.8743
 -6.60000    1.86     1.86   0.30383  -9.8746
 -6.55000    1.86     1.86   0.30375  -9.8747
 -6.50000    1.86     1.86   0.30386  -9.8745
 -6.45000    1.86     1.86   0.30364  -9.8746
 -6.40000    1.86     1.86   0.30393  -9.8748
 -6.35000    1.86     1.86   0.30352  -9.8747
 -6.30000    1.86     1.86   0.30325  -9.8748
 -6.25000    1.86     1.86   0.30334  -9.8748
 -6.20000    1.86     1.86   0.30315  -9.8750
 -6.15000    1.86     1.86   0.30308  -9.8749
 -6.10000    1.86     1.86   0.30311  -9.8751
 -6.05000    1.86     1.86   0.30295  -9.8749
 -6.00000    1.86     1.86   0.30323  -9.8750
 -5.95000    1.86     1.86   0.30294  -9.8749
 -5.90000    1.86     1.86   0.30279  -9.8745
 -5.85000    1.86     1.86   0.30253  -9.8740
 -5.80000    1.86     1.86   0.30259  -9.8745
 -5.75000    1.86     1.86   0.30186  -9.8741
 -5.70000    1.86     1.86   0.30295  -9.8751
 -5.65000    1.86     1.86   0.30256  -9.8748
 -5.60000    1.86     1.86   0.30259  -9.8748
 -5.55000    1.86     1.86   0.30251  -9.8749
 -5.50000    1.86     1.86   0.30248  -9.8750
 -5.45000    1.86     1.86   0.30235  -9.8754
 -5.40000    1.86     1.86   0.30230  -9.8754
 -5.35000    1.86     1.86   0.30192  -9.8750
 -5.30000    1.86     1.86   0.30155  -9.8747
 -5.25000    1.86     1.86   0.30220  -9.8754
 -5.20000    1.86     1.86   0.30220  -9.8753
 -5.15000    1.86     1.86   0.30232  -9.8758
 -5.10000    1.86     1.86   0.30178  -9.8759
 -5.05000    1.86     1.86   0.30191  -9.8760
 -5.00000    1.86     1.86   0.30178  -9.8757
 -4.95000    1.86     1.86   0.30176  -9.8755
 -4.90000    1.86     1.86   0.30155  -9.8751
 -4.85000    1.86     1.86   0.30150  -9.8754
 -4.80000    1.86     1.86   0.30144  -9.8753
 -4.75000    1.86     1.86   0.30131  -9.8755
 -4.70000    1.86     1.86   0.30124  -9.8754
 -4.65000    1.86     1.86   0.30162  -9.8754
 -4.60000    1.86     1.86   0.30113  -9.8755
 -4.55000    1.86     1.86   0.30137  -9.8756
 -4.50000    1.86     1.86   0.30113  -9.8754
 -4.45000    1.86     1.86   0.30096  -9.8756
 -4.40000    1.86     1.86   0.30111  -9.8757
 -4.35000    1.86     1.86   0.30090  -9.8757
 -4.30000    1.86     1.86   0.30088  -9.8758
 -4.25000    1.86     1.86   0.30098  -9.8759
 -4.20000    1.86     1.86   0.30083  -9.8761
 -4.15000    1.86     1.86   0.30090  -9.8759
 -4.10000    1.86     1.86   0.30101  -9.8761
 -4.05000    1.86     1.86   0.30087  -9.8759
 -4.00000    1.86     1.86   0.30056  -9.8757
 -3.95000    1.86     1.86   0.30062  -9.8758
 -3.90000    1.86     1.86   0.30065  -9.8760
 -3.85000    1.86     1.86   0.30021  -9.8762
 -3.80000    1.86     1.86   0.30021  -9.8758
 -3.75000    1.86     1.86   0.29990  -9.8760
 -3.70000    1.86     1.86   0.29981  -9.8762
 -3.65000    1.86     1.86   0.29992  -9.8759
 -3.60000    1.86     1.86   0.29961  -9.8758
 -3.55000    1.86     1.86   0.29972  -9.8757
 -3.50000    1.86     1.86   0.29969  -9.8760
 -3.45000    1.86     1.86   0.29958  -9.8761
 -3.40000    1.86     1.86   0.29992  -9.8761
 -3.35000    1.86     1.86   0.29972  -9.8761
 -3.30000    1.86     1.86   0.29981  -9.8761
 -3.25000    1.86     1.86   0.30002  -9.8761
 -3.20000    1.86     1.86   0.29999  -9.8759
 -3.15000    1.86     1.86   0.29976  -9.8756
 -3.10000    1.86     1.86   0.29990  -9.8759
 -3.05000    1.86     1.86   0.29977  -9.8759
 -3.00000    1.86     1.86   0.29972  -9.8759
 -2.95000    1.86     1.86   0.29981  -9.8758
 -2.90000    1.86     1.86   0.29964  -9.8758
 -2.85000    1.86     1.86   0.29958  -9.8760
 -2.80000    1.86     1.86   0.29951  -9.8760
 -2.75000    1.86     1.86   0.29958  -9.8762
 -2.70000    1.86     1.86   0.29940  -9.8764
 -2.65000    1.86     1.86   0.29933  -9.8766
 -2.60000    1.86     1.86   0.29928  -9.8765
 -2.55000    1.86     1.86   0.29919  -9.8760
 -2.50000    1.86     1.86   0.29927  -9.8759
 -2.45000    1.86     1.86   0.29925  -9.8758
 -2.40000    1.86     1.86   0.29878  -9.8760
 -2.35000    1.86     1.86   0.29904  -9.8758
 -2.30000    1.86     1.86   0.29902  -9.8759
 -2.25000    1.86     1.86   0.29894  -9.8762
 -2.20000    1.86     1.86   0.29901  -9.8765
 -2.15000    1.86     1.86   0.29876  -9.8764
 -2.10000    1.86     1.86   0.29857  -9.8763
 -2.05000    1.86     1.86   0.29849  -9.8763
 -2.00000    1.86     1.86   0.29824  -9.8765
 -1.95000    1.86     1.86   0.29837  -9.8767
 -1.90000    1.86     1.86   0.29832  -9.8767
 -1.85000    1.86     1.86   0.29832  -9.8766
 -1.80000    1.86     1.86   0.29801  -9.8763
 -1.75000    1.86     1.86   0.29793  -9.8767
 -1.70000    1.86     1.86   0.29806  -9.8762
 -1.65000    1.86     1.86   0.29793  -9.8765
 -1.60000    1.86     1.86   0.29775  -9.8768
 -1.55000    1.86     1.86   0.29785  -9.8768
 -1.50000    1.86     1.86   0.29767  -9.8769
 -1.45000    1.86     1.86   0.29777  -9.8770
 -1.40000    1.86     1.86   0.29754  -9.8770
 -1.35000    1.86     1.86   0.29721  -9.8768
 -1.30000    1.86     1.86   0.29739  -9.8767
 -1.25000    1.86     1.86   0.29708  -9.8770
 -1.20000    1.86     1.86   0.29674  -9.8773
 -1.15000    1.86     1.86   0.29664  -9.8777
 -1.10000    1.86     1.86   0.29664  -9.8779
 -1.05000    1.86     1.86   0.29669  -9.8778
 -1.00000    1.86     1.86   0.29640  -9.8778
 -0.95000    1.86     1.86   0.29602  -9.8781
 -0.90000    1.86     1.86   0.29611  -9.8785
 -0.85000    1.86     1.86   0.29537  -9.8783
 -0.80000    1.86     1.86   0.29527  -9.8783
 -0.75000    1.86     1.86   0.29464  -9.8786
 -0.70000    1.86     1.86   0.29425  -9.8785
 -0.65000    1.86     1.86   0.29389  -9.8781
 -0.60000    1.86     1.86   0.29312  -9.8776
 -0.55000    1.86     1.86   0.29257  -9.8771
 -0.50000    1.86     1.86   0.29219  -9.8766
 -0.45000    1.86     1.86   0.29195  -9.8756
 -0.40000    1.86     1.86   0.29161  -9.8748
 -0.35000    1.86     1.86   0.29122  -9.8735
 -0.30000    1.86     1.86   0.29154  -9.8717
 -0.25000    1.86     1.86   0.29216  -9.8715
 -0.20000    1.86     1.86   0.29239  -9.8712
 -0.15000    1.86     1.86   0.29262  -9.8715
 -0.10000    1.86     1.86   0.29275  -9.8712
 -0.05000    1.86     1.86   0.29268  -9.8713
 0.00000    1.86     1.86   0.29267  -9.8709
