 Field[T] Tsmpl[K] Tcntr[K] Signal   Mirror[MM]
 0.00000    1.86     1.86   0.29544  -9.8715
 0.05000    1.86     1.86   0.29529  -9.8715
 0.10000    1.86     1.86   0.29527  -9.8715
 0.15000    1.86     1.86   0.29523  -9.8716
 0.20000    1.86     1.86   0.29497  -9.8716
 0.25000    1.86     1.86   0.29460  -9.8720
 0.30000    1.86     1.86   0.29421  -9.8722
 0.35000    1.86     1.86   0.29346  -9.8733
 0.40000    1.86     1.86   0.29380  -9.8742
 0.45000    1.86     1.86   0.29385  -9.8754
 0.50000    1.86     1.86   0.29444  -9.8760
 0.55000    1.86     1.86   0.29439  -9.8768
 0.60000    1.86     1.86   0.29520  -9.8773
 0.65000    1.86     1.86   0.29547  -9.8776
 0.70000    1.86     1.86   0.29578  -9.8780
 0.75000    1.86     1.86   0.29597  -9.8780
 0.80000    1.86     1.86   0.29617  -9.8784
 0.85000    1.86     1.86   0.29637  -9.8783
 0.90000    1.86     1.86   0.29676  -9.8777
 0.95000    1.86     1.86   0.29719  -9.8772
 1.00000    1.86     1.86   0.29725  -9.8769
 1.05000    1.86     1.86   0.29740  -9.8767
 1.10000    1.86     1.86   0.29770  -9.8764
 1.15000    1.86     1.86   0.29775  -9.8764
 1.20000    1.86     1.86   0.29772  -9.8754
 1.25000    1.86     1.86   0.29772  -9.8757
 1.30000    1.86     1.86   0.29763  -9.8758
 1.35000    1.86     1.86   0.29795  -9.8756
 1.40000    1.86     1.86   0.29795  -9.8759
 1.45000    1.86     1.86   0.29815  -9.8759
 1.50000    1.86     1.86   0.29814  -9.8756
 1.55000    1.86     1.86   0.29817  -9.8754
 1.60000    1.86     1.86   0.29820  -9.8754
 1.65000    1.86     1.86   0.29785  -9.8754
 1.70000    1.86     1.86   0.29780  -9.8754
 1.75000    1.86     1.86   0.29797  -9.8754
 1.80000    1.86     1.86   0.29802  -9.8759
 1.85000    1.86     1.86   0.29790  -9.8758
 1.90000    1.86     1.86   0.29817  -9.8757
 1.95000    1.86     1.86   0.29785  -9.8757
 2.00000    1.86     1.86   0.29797  -9.8759
 2.05000    1.86     1.86   0.29773  -9.8755
 2.10000    1.86     1.86   0.29765  -9.8751
 2.15000    1.86     1.86   0.29776  -9.8747
 2.20000    1.86     1.86   0.29766  -9.8750
 2.25000    1.86     1.86   0.29780  -9.8750
 2.30000    1.86     1.86   0.29789  -9.8749
 2.35000    1.86     1.86   0.29758  -9.8747
 2.40000    1.86     1.86   0.29758  -9.8751
 2.45000    1.86     1.86   0.29742  -9.8749
 2.50000    1.86     1.86   0.29730  -9.8745
 2.55000    1.86     1.86   0.29740  -9.8750
 2.60000    1.86     1.86   0.29739  -9.8750
 2.65000    1.86     1.86   0.29738  -9.8748
 2.70000    1.86     1.86   0.29730  -9.8748
 2.75000    1.86     1.86   0.29745  -9.8748
 2.80000    1.86     1.86   0.29725  -9.8748
 2.85000    1.86     1.86   0.29714  -9.8750
 2.90000    1.86     1.86   0.29712  -9.8749
 2.95000    1.86     1.86   0.29715  -9.8748
 3.00000    1.86     1.86   0.29703  -9.8751
 3.05000    1.86     1.86   0.29688  -9.8750
 3.10000    1.86     1.86   0.29698  -9.8748
 3.15000    1.86     1.86   0.29673  -9.8745
 3.20000    1.86     1.86   0.29721  -9.8746
 3.25000    1.86     1.86   0.29685  -9.8743
 3.30000    1.86     1.86   0.29680  -9.8747
 3.35000    1.86     1.86   0.29710  -9.8747
 3.40000    1.86     1.86   0.29692  -9.8748
 3.45000    1.86     1.86   0.29670  -9.8748
 3.50000    1.86     1.86   0.29674  -9.8749
 3.55000    1.86     1.86   0.29643  -9.8742
 3.60000    1.86     1.86   0.29674  -9.8738
 3.65000    1.86     1.86   0.29644  -9.8738
 3.70000    1.86     1.86   0.29649  -9.8744
 3.75000    1.86     1.86   0.29643  -9.8745
 3.80000    1.86     1.86   0.29640  -9.8745
 3.85000    1.86     1.86   0.29632  -9.8744
 3.90000    1.86     1.86   0.29621  -9.8747
 3.95000    1.86     1.86   0.29616  -9.8744
 4.00000    1.86     1.86   0.29616  -9.8746
 4.05000    1.86     1.86   0.29604  -9.8746
 4.10000    1.86     1.86   0.29625  -9.8742
 4.15000    1.86     1.86   0.29614  -9.8745
 4.20000    1.86     1.86   0.29604  -9.8744
 4.25000    1.86     1.86   0.29631  -9.8748
 4.30000    1.86     1.86   0.29619  -9.8751
 4.35000    1.86     1.86   0.29612  -9.8753
 4.40000    1.86     1.86   0.29583  -9.8743
 4.45000    1.86     1.86   0.29507  -9.8740
 4.50000    1.86     1.86   0.29504  -9.8742
 4.55000    1.86     1.86   0.29541  -9.8745
 4.60000    1.86     1.86   0.29556  -9.8748
 4.65000    1.86     1.86   0.29502  -9.8744
 4.70000    1.86     1.86   0.29520  -9.8743
 4.75000    1.86     1.86   0.29526  -9.8746
 4.80000    1.86     1.86   0.29555  -9.8747
 4.85000    1.86     1.86   0.29541  -9.8748
 4.90000    1.86     1.86   0.29523  -9.8753
 4.95000    1.86     1.86   0.29526  -9.8751
 5.00000    1.86     1.86   0.29439  -9.8745
 5.05000    1.86     1.86   0.29519  -9.8749
 5.10000    1.86     1.86   0.29536  -9.8746
 5.15000    1.86     1.86   0.29538  -9.8750
 5.20000    1.86     1.86   0.29517  -9.8748
 5.25000    1.86     1.86   0.29526  -9.8747
 5.30000    1.86     1.86   0.29532  -9.8748
 5.35000    1.86     1.86   0.29551  -9.8747
 5.40000    1.86     1.86   0.29538  -9.8747
 5.45000    1.86     1.86   0.29524  -9.8744
 5.50000    1.86     1.86   0.29529  -9.8742
 5.55000    1.86     1.86   0.29520  -9.8740
 5.60000    1.86     1.86   0.29495  -9.8745
 5.65000    1.86     1.86   0.29519  -9.8749
 5.70000    1.86     1.86   0.29514  -9.8747
 5.75000    1.86     1.86   0.29480  -9.8744
 5.80000    1.86     1.86   0.29500  -9.8746
 5.85000    1.86     1.86   0.29483  -9.8747
 5.90000    1.86     1.86   0.29489  -9.8749
 5.95000    1.86     1.86   0.29481  -9.8749
 6.00000    1.86     1.86   0.29475  -9.8747
 6.05000    1.86     1.86   0.29472  -9.8743
 6.10000    1.86     1.86   0.29472  -9.8743
 6.15000    1.86     1.86   0.29456  -9.8743
 6.20000    1.86     1.86   0.29480  -9.8740
 6.25000    1.86     1.86   0.29491  -9.8741
 6.30000    1.86     1.86   0.29489  -9.8742
 6.35000    1.86     1.86   0.29480  -9.8746
 6.40000    1.86     1.86   0.29463  -9.8749
 6.45000    1.86     1.86   0.29460  -9.8747
 6.50000    1.86     1.86   0.29483  -9.8747
 6.55000    1.86     1.86   0.29444  -9.8748
 6.60000    1.86     1.86   0.29454  -9.8747
 6.65000    1.86     1.86   0.29438  -9.8747
 6.70000    1.86     1.86   0.29406  -9.8743
 6.75000    1.86     1.86   0.29444  -9.8746
 6.80000    1.86     1.86   0.29423  -9.8744
 6.85000    1.86     1.86   0.29430  -9.8742
 6.90000    1.86     1.86   0.29399  -9.8743
 6.95000    1.86     1.86   0.29424  -9.8743
 7.00000    1.86     1.86   0.29430  -9.8741
 7.00000    1.86     1.86   0.29388  -9.8739
 6.95000    1.86     1.86   0.29424  -9.8739
 6.90000    1.86     1.86   0.29424  -9.8743
 6.85000    1.86     1.86   0.29407  -9.8746
 6.80000    1.86     1.86   0.29429  -9.8743
 6.75000    1.86     1.86   0.29421  -9.8742
 6.70000    1.86     1.86   0.29412  -9.8743
 6.65000    1.86     1.86   0.29423  -9.8743
 6.60000    1.86     1.86   0.29434  -9.8745
 6.55000    1.86     1.86   0.29444  -9.8744
 6.50000    1.86     1.86   0.29468  -9.8746
 6.45000    1.86     1.86   0.29430  -9.8748
 6.40000    1.86     1.86   0.29460  -9.8746
 6.35000    1.86     1.86   0.29451  -9.8746
 6.30000    1.86     1.86   0.29466  -9.8746
 6.25000    1.86     1.86   0.29448  -9.8746
 6.20000    1.86     1.86   0.29454  -9.8745
 6.15000    1.86     1.86   0.29457  -9.8748
 6.10000    1.86     1.86   0.29463  -9.8748
 6.05000    1.86     1.86   0.29454  -9.8748
 6.00000    1.86     1.86   0.29466  -9.8748
 5.95000    1.86     1.86   0.29480  -9.8751
 5.90000    1.86     1.86   0.29480  -9.8749
 5.85000    1.86     1.86   0.29458  -9.8749
 5.80000    1.86     1.86   0.29489  -9.8751
 5.75000    1.86     1.86   0.29505  -9.8749
 5.70000    1.86     1.86   0.29507  -9.8751
 5.65000    1.86     1.86   0.29514  -9.8751
 5.60000    1.86     1.86   0.29504  -9.8751
 5.55000    1.86     1.86   0.29535  -9.8749
 5.50000    1.86     1.86   0.29519  -9.8748
 5.45000    1.86     1.86   0.29517  -9.8751
 5.40000    1.86     1.86   0.29534  -9.8753
 5.35000    1.86     1.86   0.29536  -9.8753
 5.30000    1.86     1.86   0.29529  -9.8758
 5.25000    1.86     1.86   0.29529  -9.8756
 5.20000    1.86     1.86   0.29535  -9.8756
 5.15000    1.86     1.86   0.29535  -9.8758
 5.10000    1.86     1.86   0.29536  -9.8754
 5.05000    1.86     1.86   0.29532  -9.8752
 5.00000    1.86     1.86   0.29550  -9.8752
 4.95000    1.86     1.86   0.29529  -9.8759
 4.90000    1.86     1.86   0.29532  -9.8757
 4.85000    1.86     1.86   0.29544  -9.8758
 4.80000    1.86     1.86   0.29538  -9.8759
 4.75000    1.86     1.86   0.29512  -9.8765
 4.70000    1.86     1.86   0.29507  -9.8767
 4.65000    1.86     1.86   0.29540  -9.8766
 4.60000    1.86     1.86   0.29550  -9.8763
 4.55000    1.86     1.86   0.29559  -9.8761
 4.50000    1.86     1.86   0.29592  -9.8760
 4.45000    1.86     1.86   0.29551  -9.8761
 4.40000    1.86     1.86   0.29542  -9.8764
 4.35000    1.86     1.86   0.29559  -9.8765
 4.30000    1.86     1.86   0.29550  -9.8765
 4.25000    1.86     1.86   0.29570  -9.8762
 4.20000    1.86     1.86   0.29536  -9.8763
 4.15000    1.86     1.86   0.29574  -9.8763
 4.10000    1.86     1.86   0.29561  -9.8765
 4.05000    1.86     1.86   0.29547  -9.8764
 4.00000    1.86     1.86   0.29565  -9.8765
 3.95000    1.86     1.86   0.29559  -9.8764
 3.90000    1.86     1.86   0.29592  -9.8765
 3.85000    1.86     1.86   0.29484  -9.8755
 3.80000    1.86     1.86   0.29565  -9.8760
 3.75000    1.86     1.86   0.29590  -9.8764
 3.70000    1.86     1.86   0.29598  -9.8765
 3.65000    1.86     1.86   0.29589  -9.8767
 3.60000    1.86     1.86   0.29566  -9.8759
 3.55000    1.86     1.86   0.29612  -9.8766
 3.50000    1.86     1.86   0.29593  -9.8768
 3.45000    1.86     1.86   0.29610  -9.8766
 3.40000    1.86     1.86   0.29604  -9.8765
 3.35000    1.86     1.86   0.29617  -9.8766
 3.30000    1.86     1.86   0.29590  -9.8766
 3.25000    1.86     1.86   0.29617  -9.8763
 3.20000    1.86     1.86   0.29628  -9.8766
 3.15000    1.86     1.86   0.29659  -9.8766
 3.10000    1.86     1.86   0.29640  -9.8764
 3.05000    1.86     1.86   0.29653  -9.8767
 3.00000    1.86     1.86   0.29627  -9.8766
 2.95000    1.86     1.86   0.29644  -9.8765
 2.90000    1.86     1.86   0.29631  -9.8768
 2.85000    1.86     1.86   0.29680  -9.8767
 2.80000    1.86     1.86   0.29663  -9.8769
 2.75000    1.86     1.86   0.29672  -9.8773
 2.70000    1.86     1.86   0.29682  -9.8770
 2.65000    1.86     1.86   0.29667  -9.8768
 2.60000    1.86     1.86   0.29672  -9.8765
 2.55000    1.86     1.86   0.29690  -9.8767
 2.50000    1.86     1.86   0.29678  -9.8769
 2.45000    1.86     1.86   0.29676  -9.8770
 2.40000    1.86     1.86   0.29670  -9.8769
 2.35000    1.86     1.86   0.29659  -9.8767
 2.30000    1.86     1.86   0.29685  -9.8764
 2.25000    1.86     1.86   0.29646  -9.8764
 2.20000    1.86     1.86   0.29668  -9.8765
 2.15000    1.86     1.86   0.29687  -9.8763
 2.10000    1.86     1.86   0.29676  -9.8763
 2.05000    1.86     1.86   0.29698  -9.8764
 2.00000    1.86     1.86   0.29672  -9.8765
 1.95000    1.86     1.86   0.29694  -9.8765
 1.90000    1.86     1.86   0.29714  -9.8766
 1.85000    1.86     1.86   0.29695  -9.8768
 1.80000    1.86     1.86   0.29657  -9.8766
 1.75000    1.86     1.86   0.29688  -9.8766
 1.70000    1.86     1.86   0.29697  -9.8766
 1.65000    1.86     1.86   0.29678  -9.8768
 1.60000    1.86     1.86   0.29674  -9.8768
 1.55000    1.86     1.86   0.29676  -9.8771
 1.50000    1.86     1.86   0.29690  -9.8771
 1.45000    1.86     1.86   0.29670  -9.8772
 1.40000    1.86     1.86   0.29687  -9.8770
 1.35000    1.86     1.86   0.29672  -9.8772
 1.30000    1.86     1.86   0.29666  -9.8778
 1.25000    1.86     1.86   0.29659  -9.8775
 1.20000    1.86     1.86   0.29663  -9.8776
 1.15000    1.86     1.86   0.29648  -9.8777
 1.10000    1.86     1.86   0.29646  -9.8782
 1.05000    1.86     1.86   0.29640  -9.8782
 1.00000    1.86     1.86   0.29648  -9.8784
 0.95000    1.86     1.86   0.29614  -9.8783
 0.90000    1.86     1.86   0.29601  -9.8783
 0.85000    1.86     1.86   0.29559  -9.8790
 0.80000    1.86     1.86   0.29563  -9.8789
 0.75000    1.86     1.86   0.29491  -9.8787
 0.70000    1.86     1.86   0.29439  -9.8786
 0.65000    1.86     1.86   0.29427  -9.8782
 0.60000    1.86     1.86   0.29382  -9.8781
 0.55000    1.86     1.86   0.29353  -9.8779
 0.50000    1.86     1.86   0.29314  -9.8770
 0.45000    1.86     1.86   0.29290  -9.8759
 0.40000    1.86     1.86   0.29256  -9.8746
 0.35000    1.86     1.86   0.29248  -9.8737
 0.30000    1.86     1.86   0.29306  -9.8724
 0.25000    1.86     1.86   0.29372  -9.8721
 0.20000    1.86     1.86   0.29359  -9.8716
 0.15000    1.86     1.86   0.29397  -9.8715
 0.10000    1.86     1.86   0.29427  -9.8716
 0.05000    1.86     1.86   0.29431  -9.8717
 -0.00000    1.86     1.86   0.29442  -9.8718
 -0.05000    1.86     1.86   0.29456  -9.8716
 -0.10000    1.86     1.86   0.29445  -9.8712
 -0.15000    1.86     1.86   0.29436  -9.8709
 -0.20000    1.86     1.86   0.29417  -9.8711
 -0.25000    1.86     1.86   0.29425  -9.8711
 -0.30000    1.86     1.86   0.29372  -9.8713
 -0.35000    1.86     1.86   0.29297  -9.8723
 -0.40000    1.86     1.86   0.29321  -9.8737
 -0.45000    1.86     1.86   0.29340  -9.8744
 -0.50000    1.86     1.86   0.29367  -9.8751
 -0.55000    1.86     1.86   0.29429  -9.8756
 -0.60000    1.86     1.86   0.29456  -9.8761
 -0.65000    1.86     1.86   0.29484  -9.8766
 -0.70000    1.86     1.86   0.29547  -9.8766
 -0.75000    1.86     1.86   0.29617  -9.8765
 -0.80000    1.86     1.86   0.29649  -9.8764
 -0.85000    1.86     1.86   0.29673  -9.8763
 -0.90000    1.86     1.86   0.29702  -9.8761
