 Field[T] Tsmpl[K] Tcntr[K] Signal   Mirror[MM]
 0.00000    1.86     1.86   0.66634  -9.8497
 0.05000    1.86     1.86   0.66659  -9.8497
 0.10000    1.86     1.86   0.66524  -9.8496
 0.15000    1.86     1.86   0.66455  -9.8495
 0.20000    1.86     1.86   0.66452  -9.8496
 0.25000    1.86     1.86   0.66398  -9.8495
 0.30000    1.86     1.86   0.66299  -9.8495
 0.35000    1.86     1.86   0.66186  -9.8496
 0.40000    1.86     1.86   0.66098  -9.8496
 0.45000    1.86     1.86   0.66003  -9.8503
 0.50000    1.86     1.86   0.65919  -9.8512
 0.55000    1.86     1.86   0.65940  -9.8517
 0.60000    1.86     1.86   0.65972  -9.8518
 0.65000    1.86     1.86   0.65964  -9.8525
 0.70000    1.86     1.86   0.66027  -9.8527
 0.75000    1.86     1.86   0.66016  -9.8529
 0.80000    1.86     1.86   0.66025  -9.8531
 0.85000    1.86     1.86   0.66065  -9.8536
 0.90000    1.86     1.86   0.66092  -9.8538
 0.95000    1.86     1.86   0.66120  -9.8535
 1.00000    1.86     1.86   0.66144  -9.8535
 1.05000    1.86     1.86   0.66107  -9.8536
 1.10000    1.86     1.86   0.66190  -9.8536
 1.15000    1.86     1.86   0.66135  -9.8536
 1.20000    1.86     1.86   0.66125  -9.8534
 1.25000    1.86     1.86   0.66165  -9.8532
 1.30000    1.86     1.86   0.66138  -9.8534
 1.35000    1.86     1.86   0.66154  -9.8535
 1.40000    1.86     1.86   0.66137  -9.8534
 1.45000    1.86     1.86   0.66123  -9.8534
 1.50000    1.86     1.86   0.66067  -9.8534
 1.55000    1.86     1.86   0.66132  -9.8534
 1.60000    1.86     1.86   0.66074  -9.8532
 1.65000    1.86     1.86   0.66064  -9.8533
 1.70000    1.86     1.86   0.66049  -9.8533
 1.75000    1.86     1.86   0.66053  -9.8535
 1.80000    1.86     1.86   0.66045  -9.8533
 1.85000    1.86     1.86   0.66003  -9.8536
 1.90000    1.86     1.86   0.65961  -9.8534
 1.95000    1.86     1.86   0.65984  -9.8534
 2.00000    1.86     1.86   0.65988  -9.8533
 2.05000    1.86     1.86   0.65921  -9.8533
 2.10000    1.86     1.86   0.65934  -9.8534
 2.15000    1.86     1.86   0.65935  -9.8535
 2.20000    1.86     1.86   0.65936  -9.8532
 2.25000    1.86     1.86   0.65869  -9.8529
 2.30000    1.86     1.86   0.65868  -9.8527
 2.35000    1.86     1.86   0.65842  -9.8526
 2.40000    1.86     1.86   0.65765  -9.8526
 2.45000    1.86     1.86   0.65807  -9.8528
 2.50000    1.86     1.86   0.65780  -9.8529
 2.55000    1.86     1.86   0.65750  -9.8531
 2.60000    1.86     1.86   0.65744  -9.8531
 2.65000    1.86     1.86   0.65749  -9.8530
 2.70000    1.86     1.86   0.65749  -9.8534
 2.75000    1.86     1.86   0.65756  -9.8534
 2.80000    1.86     1.86   0.65749  -9.8533
 2.85000    1.86     1.86   0.65752  -9.8531
 2.90000    1.86     1.86   0.65731  -9.8533
 2.95000    1.86     1.86   0.65752  -9.8533
 3.00000    1.86     1.86   0.65759  -9.8530
 3.05000    1.86     1.86   0.65656  -9.8530
 3.10000    1.86     1.86   0.65704  -9.8531
 3.15000    1.86     1.86   0.65635  -9.8529
 3.20000    1.86     1.86   0.65626  -9.8527
 3.25000    1.86     1.86   0.65653  -9.8531
 3.30000    1.86     1.86   0.65640  -9.8536
 3.35000    1.86     1.86   0.65625  -9.8530
 3.40000    1.86     1.86   0.65532  -9.8528
 3.45000    1.86     1.86   0.65596  -9.8530
 3.50000    1.86     1.86   0.65492  -9.8530
 3.55000    1.86     1.86   0.65479  -9.8531
 3.60000    1.86     1.86   0.65465  -9.8533
 3.65000    1.86     1.86   0.65464  -9.8533
 3.70000    1.86     1.86   0.65439  -9.8533
 3.75000    1.86     1.86   0.65421  -9.8533
 3.80000    1.86     1.86   0.65388  -9.8536
 3.85000    1.86     1.86   0.65387  -9.8535
 3.90000    1.86     1.86   0.65299  -9.8535
 3.95000    1.86     1.86   0.65279  -9.8534
 4.00000    1.86     1.86   0.65272  -9.8539
 4.05000    1.86     1.86   0.65210  -9.8534
 4.10000    1.86     1.86   0.65220  -9.8533
 4.15000    1.86     1.86   0.65170  -9.8534
 4.20000    1.86     1.86   0.65126  -9.8534
 4.25000    1.86     1.86   0.65128  -9.8534
 4.30000    1.86     1.86   0.65140  -9.8536
 4.35000    1.86     1.86   0.65105  -9.8531
 4.40000    1.86     1.86   0.65114  -9.8530
 4.45000    1.86     1.86   0.65141  -9.8532
 4.50000    1.86     1.86   0.65090  -9.8536
 4.55000    1.86     1.86   0.65073  -9.8535
 4.60000    1.86     1.86   0.65046  -9.8538
 4.65000    1.86     1.86   0.65021  -9.8533
 4.70000    1.86     1.86   0.65028  -9.8533
 4.75000    1.86     1.86   0.65014  -9.8534
 4.80000    1.86     1.86   0.65012  -9.8536
 4.85000    1.86     1.86   0.64962  -9.8539
 4.90000    1.86     1.86   0.64974  -9.8536
 4.95000    1.86     1.86   0.64948  -9.8534
 5.00000    1.86     1.86   0.64903  -9.8534
 5.05000    1.86     1.86   0.64929  -9.8529
 5.10000    1.86     1.86   0.64916  -9.8536
 5.15000    1.86     1.86   0.64855  -9.8532
 5.20000    1.86     1.86   0.64906  -9.8533
 5.25000    1.86     1.86   0.64810  -9.8533
 5.30000    1.86     1.86   0.64835  -9.8531
 5.35000    1.86     1.86   0.64859  -9.8535
 5.40000    1.86     1.86   0.64755  -9.8535
 5.45000    1.86     1.86   0.64779  -9.8534
 5.50000    1.86     1.86   0.64720  -9.8536
 5.55000    1.86     1.86   0.64687  -9.8538
 5.60000    1.86     1.86   0.64748  -9.8540
 5.65000    1.86     1.86   0.64678  -9.8540
 5.70000    1.86     1.86   0.64646  -9.8540
 5.75000    1.86     1.86   0.64622  -9.8537
 5.80000    1.86     1.86   0.64558  -9.8538
 5.85000    1.86     1.86   0.64573  -9.8539
 5.90000    1.86     1.86   0.64623  -9.8540
 5.95000    1.86     1.86   0.64603  -9.8541
 6.00000    1.86     1.86   0.64576  -9.8537
 6.05000    1.86     1.86   0.64522  -9.8537
 6.10000    1.86     1.86   0.64513  -9.8538
 6.15000    1.86     1.86   0.64521  -9.8540
 6.20000    1.86     1.86   0.64538  -9.8537
 6.25000    1.86     1.86   0.64514  -9.8537
 6.30000    1.86     1.86   0.64449  -9.8536
 6.35000    1.86     1.86   0.64472  -9.8538
 6.40000    1.86     1.86   0.64480  -9.8541
 6.45000    1.86     1.86   0.64473  -9.8537
 6.50000    1.86     1.86   0.64437  -9.8538
 6.55000    1.86     1.86   0.64406  -9.8539
 6.60000    1.86     1.86   0.64382  -9.8538
 6.65000    1.86     1.86   0.64369  -9.8534
 6.70000    1.86     1.86   0.64370  -9.8533
 6.75000    1.86     1.86   0.64341  -9.8534
 6.80000    1.86     1.86   0.64332  -9.8532
 6.85000    1.86     1.86   0.64321  -9.8535
 6.90000    1.86     1.86   0.64316  -9.8535
 6.95000    1.86     1.86   0.64264  -9.8535
 7.00000    1.86     1.86   0.64250  -9.8539
 7.00000    1.86     1.86   0.64305  -9.8539
 6.95000    1.86     1.86   0.64272  -9.8539
 6.90000    1.86     1.86   0.64287  -9.8538
 6.85000    1.86     1.86   0.64224  -9.8534
 6.80000    1.86     1.86   0.64216  -9.8533
 6.75000    1.86     1.86   0.64284  -9.8538
 6.70000    1.86     1.86   0.64281  -9.8540
 6.65000    1.86     1.86   0.64345  -9.8540
 6.60000    1.86     1.86   0.64312  -9.8539
 6.55000    1.86     1.86   0.64296  -9.8538
 6.50000    1.86     1.86   0.64364  -9.8536
 6.45000    1.86     1.86   0.64318  -9.8539
 6.40000    1.86     1.86   0.64361  -9.8538
 6.35000    1.86     1.86   0.64368  -9.8541
 6.30000    1.86     1.86   0.64355  -9.8535
 6.25000    1.86     1.86   0.64374  -9.8537
 6.20000    1.86     1.86   0.64390  -9.8537
 6.15000    1.86     1.86   0.64403  -9.8542
 6.10000    1.86     1.86   0.64406  -9.8544
 6.05000    1.86     1.86   0.64423  -9.8544
 6.00000    1.86     1.86   0.64412  -9.8543
 5.95000    1.86     1.86   0.64416  -9.8542
 5.90000    1.86     1.86   0.64406  -9.8540
 5.85000    1.86     1.86   0.64393  -9.8539
 5.80000    1.86     1.86   0.64427  -9.8534
 5.75000    1.86     1.86   0.64405  -9.8534
 5.70000    1.86     1.86   0.64383  -9.8533
 5.65000    1.86     1.86   0.64431  -9.8535
 5.60000    1.86     1.86   0.64396  -9.8537
 5.55000    1.86     1.86   0.64408  -9.8540
 5.50000    1.86     1.86   0.64414  -9.8544
 5.45000    1.86     1.86   0.64439  -9.8546
 5.40000    1.86     1.86   0.64431  -9.8545
 5.35000    1.86     1.86   0.64440  -9.8539
 5.30000    1.86     1.86   0.64454  -9.8538
 5.25000    1.86     1.86   0.64462  -9.8538
 5.20000    1.86     1.86   0.64467  -9.8541
 5.15000    1.86     1.86   0.64458  -9.8542
 5.10000    1.86     1.86   0.64415  -9.8540
 5.05000    1.86     1.86   0.64448  -9.8540
 5.00000    1.86     1.86   0.64471  -9.8540
 4.95000    1.86     1.86   0.64462  -9.8540
 4.90000    1.86     1.86   0.64423  -9.8540
 4.85000    1.86     1.86   0.64449  -9.8540
 4.80000    1.86     1.86   0.64479  -9.8540
 4.75000    1.86     1.86   0.64452  -9.8539
 4.70000    1.86     1.86   0.64420  -9.8538
 4.65000    1.86     1.86   0.64415  -9.8538
 4.60000    1.86     1.86   0.64451  -9.8537
 4.55000    1.86     1.86   0.64380  -9.8541
 4.50000    1.86     1.86   0.64467  -9.8540
 4.45000    1.86     1.86   0.64410  -9.8541
 4.40000    1.86     1.86   0.64396  -9.8540
 4.35000    1.86     1.86   0.64434  -9.8539
 4.30000    1.86     1.86   0.64426  -9.8536
 4.25000    1.86     1.86   0.64451  -9.8538
 4.20000    1.86     1.86   0.64364  -9.8537
 4.15000    1.86     1.86   0.64455  -9.8539
 4.10000    1.86     1.86   0.64447  -9.8536
 4.05000    1.86     1.86   0.64487  -9.8537
 4.00000    1.86     1.86   0.64493  -9.8538
 3.95000    1.86     1.86   0.64451  -9.8536
 3.90000    1.86     1.86   0.64481  -9.8538
 3.85000    1.86     1.86   0.64525  -9.8539
 3.80000    1.86     1.86   0.64462  -9.8541
 3.75000    1.86     1.86   0.64444  -9.8539
 3.70000    1.86     1.86   0.64503  -9.8540
 3.65000    1.86     1.86   0.64507  -9.8537
 3.60000    1.86     1.86   0.64455  -9.8535
 3.55000    1.86     1.86   0.64518  -9.8537
 3.50000    1.86     1.86   0.64484  -9.8537
 3.45000    1.86     1.86   0.64538  -9.8537
 3.40000    1.86     1.86   0.64504  -9.8537
 3.35000    1.86     1.86   0.64481  -9.8538
 3.30000    1.86     1.86   0.64517  -9.8539
 3.25000    1.86     1.86   0.64467  -9.8529
 3.20000    1.86     1.86   0.64506  -9.8527
 3.15000    1.86     1.86   0.64573  -9.8532
 3.10000    1.86     1.86   0.64540  -9.8532
 3.05000    1.86     1.86   0.64599  -9.8534
 3.00000    1.86     1.86   0.64634  -9.8537
 2.95000    1.86     1.86   0.64635  -9.8541
 2.90000    1.86     1.86   0.64611  -9.8542
 2.85000    1.86     1.86   0.64624  -9.8541
 2.80000    1.86     1.86   0.64573  -9.8541
 2.75000    1.86     1.86   0.64591  -9.8544
 2.70000    1.86     1.86   0.64625  -9.8541
 2.65000    1.86     1.86   0.64644  -9.8542
 2.60000    1.86     1.86   0.64641  -9.8541
 2.55000    1.86     1.86   0.64566  -9.8543
 2.50000    1.86     1.86   0.64549  -9.8542
 2.45000    1.86     1.86   0.64605  -9.8540
 2.40000    1.86     1.86   0.64623  -9.8540
 2.35000    1.86     1.86   0.64579  -9.8538
 2.30000    1.86     1.86   0.64626  -9.8542
 2.25000    1.86     1.86   0.64657  -9.8543
 2.20000    1.86     1.86   0.64642  -9.8543
 2.15000    1.86     1.86   0.64566  -9.8543
 2.10000    1.86     1.86   0.64603  -9.8540
 2.05000    1.86     1.86   0.64678  -9.8542
 2.00000    1.86     1.86   0.64625  -9.8543
 1.95000    1.86     1.86   0.64612  -9.8541
 1.90000    1.86     1.86   0.64668  -9.8542
 1.85000    1.86     1.86   0.64682  -9.8541
 1.80000    1.86     1.86   0.64631  -9.8537
 1.75000    1.86     1.86   0.64667  -9.8539
 1.70000    1.86     1.86   0.64678  -9.8536
 1.65000    1.86     1.86   0.64683  -9.8535
 1.60000    1.86     1.86   0.64638  -9.8536
 1.55000    1.86     1.86   0.64669  -9.8534
 1.50000    1.86     1.86   0.64654  -9.8538
 1.45000    1.86     1.86   0.64638  -9.8538
 1.40000    1.86     1.86   0.64602  -9.8540
 1.35000    1.86     1.86   0.64636  -9.8540
 1.30000    1.86     1.86   0.64650  -9.8540
 1.25000    1.86     1.86   0.64674  -9.8541
 1.20000    1.86     1.86   0.64600  -9.8537
 1.15000    1.86     1.86   0.64605  -9.8534
 1.10000    1.86     1.86   0.64605  -9.8534
 1.05000    1.86     1.86   0.64591  -9.8537
 1.00000    1.86     1.86   0.64543  -9.8537
 0.95000    1.86     1.86   0.64514  -9.8535
 0.90000    1.86     1.86   0.64458  -9.8534
 0.85000    1.86     1.86   0.64468  -9.8532
 0.80000    1.86     1.86   0.64380  -9.8531
 0.75000    1.86     1.86   0.64358  -9.8530
 0.70000    1.86     1.86   0.64288  -9.8524
 0.65000    1.86     1.86   0.64267  -9.8521
 0.60000    1.86     1.86   0.64214  -9.8517
 0.55000    1.86     1.86   0.64214  -9.8511
 0.50000    1.86     1.86   0.64178  -9.8504
 0.45000    1.86     1.86   0.64182  -9.8500
 0.40000    1.86     1.86   0.64220  -9.8496
 0.35000    1.86     1.86   0.64322  -9.8493
 0.30000    1.86     1.86   0.64399  -9.8488
 0.25000    1.86     1.86   0.64523  -9.8487
 0.20000    1.86     1.86   0.64556  -9.8484
 0.15000    1.86     1.86   0.64576  -9.8482
 0.10000    1.86     1.86   0.64587  -9.8483
 0.05000    1.86     1.86   0.64582  -9.8483
 -0.00000    1.86     1.86   0.64612  -9.8482
 -0.05000    1.86     1.86   0.64549  -9.8475
 -0.10000    1.86     1.86   0.64683  -9.8480
 -0.15000    1.86     1.86   0.64686  -9.8488
 -0.20000    1.86     1.86   0.64645  -9.8484
 -0.25000    1.86     1.86   0.64634  -9.8483
 -0.30000    1.86     1.86   0.64588  -9.8484
 -0.35000    1.86     1.86   0.64483  -9.8485
