 Field[T] Tsmpl[K] Tcntr[K] Signal   Mirror[MM]
 0.00000    1.85     1.87   2.09418  2.7758
 0.05000    1.84     1.87   2.09239  2.7757
 0.10000    1.84     1.87   2.08923  2.7758
 0.15000    1.84     1.87   2.08886  2.7757
 0.20000    1.84     1.87   2.08687  2.7757
 0.25000    1.84     1.87   2.08646  2.7758
 0.30000    1.84     1.87   2.08724  2.7758
 0.35000    1.84     1.87   2.08702  2.7757
 0.40000    1.84     1.87   2.08371  2.7758
 0.45000    1.84     1.87   2.08538  2.7757
 0.50000    1.84     1.87   2.08264  2.7758
 0.55000    1.84     1.87   2.08275  2.7759
 0.60000    1.84     1.87   2.08120  2.7759
 0.65000    1.84     1.87   2.08272  2.7756
 0.70000    1.84     1.87   2.07976  2.7757
 0.75000    1.84     1.87   2.07895  2.7755
 0.80000    1.84     1.87   2.07848  2.7755
 0.85000    1.84     1.87   2.07934  2.7754
 0.90000    1.84     1.87   2.07988  2.7756
 0.95000    1.84     1.87   2.07766  2.7756
 1.00000    1.84     1.87   2.07540  2.7756
 1.05000    1.84     1.87   2.07752  2.7756
 1.10000    1.84     1.87   2.07437  2.7755
 1.15000    1.84     1.87   2.07562  2.7755
 1.20000    1.84     1.87   2.07347  2.7755
 1.25000    1.84     1.87   2.07533  2.7758
 1.30000    1.85     1.87   2.07258  2.7756
 1.35000    1.85     1.87   2.07219  2.7759
 1.40000    1.85     1.87   2.07252  2.7759
 1.45000    1.85     1.87   2.07056  2.7758
 1.50000    1.85     1.87   2.07163  2.7756
 1.55000    1.85     1.87   2.06727  2.7757
 1.60000    1.85     1.87   2.06744  2.7757
 1.65000    1.85     1.87   2.06570  2.7755
 1.70000    1.85     1.87   2.06375  2.7757
 1.75000    1.85     1.87   2.06438  2.7760
 1.80000    1.85     1.87   2.06074  2.7759
 1.85000    1.85     1.87   2.05937  2.7760
 1.90000    1.85     1.87   2.05992  2.7759
 1.95000    1.85     1.87   2.05561  2.7762
 2.00000    1.85     1.87   2.05742  2.7761
 2.05000    1.85     1.87   2.05490  2.7759
 2.10000    1.85     1.87   2.05514  2.7756
 2.15000    1.85     1.88   2.05642  2.7756
 2.20000    1.85     1.88   2.05331  2.7753
 2.25000    1.85     1.88   2.05420  2.7758
 2.30000    1.85     1.88   2.05295  2.7755
 2.35000    1.85     1.88   2.05090  2.7755
 2.40000    1.86     1.88   2.05177  2.7750
 2.45000    1.86     1.88   2.05043  2.7754
 2.50000    1.86     1.88   2.04914  2.7754
 2.55000    1.86     1.88   2.04936  2.7762
 2.60000    1.86     1.88   2.05039  2.7762
 2.65000    1.86     1.88   2.05135  2.7760
 2.70000    1.86     1.88   2.04997  2.7761
 2.75000    1.86     1.88   2.04951  2.7761
 2.80000    1.86     1.88   2.04889  2.7758
 2.85000    1.86     1.88   2.04776  2.7758
 2.90000    1.86     1.88   2.04641  2.7757
 2.95000    1.86     1.88   2.04472  2.7760
 3.00000    1.86     1.88   2.04462  2.7760
 3.05000    1.86     1.88   2.04577  2.7760
 3.10000    1.87     1.88   2.04659  2.7760
 3.15000    1.87     1.88   2.04462  2.7758
 3.20000    1.87     1.89   2.04222  2.7757
 3.25000    1.87     1.89   2.04232  2.7755
 3.30000    1.87     1.89   2.04370  2.7753
 3.35000    1.87     1.89   2.04077  2.7755
 3.40000    1.87     1.89   2.04016  2.7755
 3.45000    1.87     1.89   2.04093  2.7755
 3.50000    1.87     1.89   2.04076  2.7752
 3.55000    1.87     1.89   2.04106  2.7754
 3.60000    1.87     1.89   2.03968  2.7752
 3.65000    1.87     1.89   2.03979  2.7752
 3.70000    1.87     1.89   2.03889  2.7752
 3.75000    1.87     1.89   2.03780  2.7755
 3.80000    1.87     1.89   2.03759  2.7755
 3.85000    1.87     1.89   2.03748  2.7754
 3.90000    1.87     1.89   2.03704  2.7753
 3.95000    1.88     1.90   2.03584  2.7757
 4.00000    1.88     1.90   2.03688  2.7758
 4.05000    1.88     1.90   2.03640  2.7756
 4.10000    1.88     1.90   2.03624  2.7757
 4.15000    1.88     1.90   2.03386  2.7758
 4.20000    1.88     1.90   2.03515  2.7758
 4.25000    1.88     1.90   2.03595  2.7753
 4.30000    1.88     1.90   2.03510  2.7754
 4.35000    1.88     1.90   2.03575  2.7754
 4.40000    1.88     1.90   2.03612  2.7760
 4.45000    1.88     1.90   2.03515  2.7757
 4.50000    1.88     1.90   2.03597  2.7756
 4.55000    1.88     1.90   2.03369  2.7756
 4.60000    1.88     1.90   2.03508  2.7756
 4.65000    1.88     1.90   2.03375  2.7756
 4.70000    1.88     1.91   2.03381  2.7754
 4.75000    1.88     1.91   2.03475  2.7756
 4.80000    1.88     1.91   2.03306  2.7755
 4.85000    1.88     1.91   2.03297  2.7753
 4.90000    1.88     1.91   2.03395  2.7755
 4.95000    1.88     1.91   2.03396  2.7754
 5.00000    1.88     1.91   2.03167  2.7754
 5.05000    1.89     1.91   2.03233  2.7754
 5.10000    1.89     1.91   2.03177  2.7752
 5.15000    1.89     1.91   2.03236  2.7755
 5.20000    1.89     1.91   2.03183  2.7753
 5.25000    1.89     1.91   2.03100  2.7752
 5.30000    1.89     1.91   2.02999  2.7753
 5.35000    1.89     1.91   2.03092  2.7757
 5.40000    1.89     1.91   2.02970  2.7758
 5.45000    1.89     1.91   2.03055  2.7757
 5.50000    1.89     1.91   2.02841  2.7756
 5.55000    1.89     1.91   2.02741  2.7756
 5.60000    1.89     1.92   2.02711  2.7756
 5.65000    1.89     1.92   2.02694  2.7754
 5.70000    1.89     1.92   2.02645  2.7755
 5.75000    1.89     1.92   2.02667  2.7756
 5.80000    1.89     1.92   2.02675  2.7756
 5.85000    1.89     1.92   2.02524  2.7755
 5.90000    1.89     1.92   2.02542  2.7756
 5.95000    1.89     1.92   2.02342  2.7756
 6.00000    1.89     1.92   2.02276  2.7756
 6.05000    1.89     1.92   2.02374  2.7754
 6.10000    1.89     1.92   2.02332  2.7757
 6.15000    1.89     1.92   2.02376  2.7756
 6.20000    1.89     1.92   2.02229  2.7756
 6.25000    1.89     1.92   2.02357  2.7756
 6.30000    1.89     1.92   2.02261  2.7758
 6.35000    1.89     1.92   2.02277  2.7757
 6.40000    1.90     1.92   2.02188  2.7759
 6.45000    1.90     1.92   2.02206  2.7759
 6.50000    1.90     1.92   2.02158  2.7759
 6.55000    1.90     1.92   2.02211  2.7760
 6.60000    1.90     1.93   2.02073  2.7761
 6.65000    1.90     1.93   2.02113  2.7760
 6.70000    1.90     1.93   2.02013  2.7759
 6.75000    1.90     1.93   2.01986  2.7760
 6.80000    1.90     1.93   2.01915  2.7762
 6.85000    1.90     1.93   2.01875  2.7761
 6.90000    1.90     1.93   2.01840  2.7759
 6.95000    1.90     1.93   2.01835  2.7763
 7.00000    1.90     1.93   2.01872  2.7762
 7.00000    1.90     1.93   2.01976  2.7761
 6.95000    1.90     1.93   2.01873  2.7761
 6.90000    1.90     1.93   2.01784  2.7760
 6.85000    1.90     1.93   2.01907  2.7759
 6.80000    1.90     1.93   2.01862  2.7759
 6.75000    1.90     1.93   2.01896  2.7758
 6.70000    1.90     1.93   2.01835  2.7760
 6.65000    1.90     1.93   2.01801  2.7761
 6.60000    1.90     1.93   2.01856  2.7759
 6.55000    1.90     1.93   2.01849  2.7759
 6.50000    1.90     1.93   2.01897  2.7758
 6.45000    1.90     1.93   2.01960  2.7759
 6.40000    1.90     1.93   2.01936  2.7759
 6.35000    1.90     1.93   2.02026  2.7760
 6.30000    1.90     1.93   2.02117  2.7760
 6.25000    1.90     1.93   2.02128  2.7758
 6.20000    1.90     1.93   2.02046  2.7759
 6.15000    1.90     1.93   2.02104  2.7759
 6.10000    1.90     1.93   2.02275  2.7758
 6.05000    1.90     1.93   2.02031  2.7756
 6.00000    1.90     1.93   2.02068  2.7759
 5.95000    1.90     1.93   2.02203  2.7759
 5.90000    1.90     1.93   2.02047  2.7758
 5.85000    1.90     1.93   2.02112  2.7759
 5.80000    1.90     1.93   2.02003  2.7758
 5.75000    1.90     1.93   2.01998  2.7760
 5.70000    1.90     1.93   2.01980  2.7757
 5.65000    1.90     1.93   2.02105  2.7759
 5.60000    1.90     1.93   2.02107  2.7757
 5.55000    1.90     1.92   2.02059  2.7758
 5.50000    1.90     1.92   2.01961  2.7759
 5.45000    1.90     1.92   2.02018  2.7760
 5.40000    1.90     1.92   2.02068  2.7759
 5.35000    1.90     1.92   2.01977  2.7761
 5.30000    1.90     1.92   2.02026  2.7761
 5.25000    1.90     1.92   2.02088  2.7759
 5.20000    1.90     1.92   2.02049  2.7761
 5.15000    1.90     1.92   2.01993  2.7760
 5.10000    1.90     1.92   2.02143  2.7759
 5.05000    1.90     1.92   2.02235  2.7761
 5.00000    1.90     1.92   2.02175  2.7760
 4.95000    1.90     1.92   2.02306  2.7762
 4.90000    1.90     1.92   2.02342  2.7761
 4.85000    1.90     1.92   2.02452  2.7761
 4.80000    1.90     1.92   2.02538  2.7760
 4.75000    1.90     1.92   2.02371  2.7762
 4.70000    1.90     1.92   2.02548  2.7761
 4.65000    1.90     1.92   2.02355  2.7761
 4.60000    1.90     1.92   2.02311  2.7762
 4.55000    1.89     1.92   2.02447  2.7762
 4.50000    1.89     1.92   2.02311  2.7760
 4.45000    1.89     1.92   2.02078  2.7760
 4.40000    1.89     1.92   2.01985  2.7760
 4.35000    1.89     1.92   2.01952  2.7758
 4.30000    1.89     1.92   2.02018  2.7762
 4.25000    1.89     1.92   2.01904  2.7764
 4.20000    1.89     1.92   2.02111  2.7762
 4.15000    1.89     1.92   2.02039  2.7762
 4.10000    1.89     1.92   2.02103  2.7762
 4.05000    1.89     1.92   2.02198  2.7761
 4.00000    1.89     1.92   2.02241  2.7763
 3.95000    1.89     1.92   2.02178  2.7762
 3.90000    1.89     1.91   2.02405  2.7761
 3.85000    1.89     1.91   2.02223  2.7762
 3.80000    1.89     1.91   2.02177  2.7761
 3.75000    1.89     1.91   2.02326  2.7763
 3.70000    1.89     1.91   2.02307  2.7762
 3.65000    1.89     1.91   2.02484  2.7765
 3.60000    1.89     1.91   2.02221  2.7762
 3.55000    1.89     1.91   2.02439  2.7764
 3.50000    1.89     1.91   2.02763  2.7763
 3.45000    1.89     1.91   2.02604  2.7764
 3.40000    1.89     1.91   2.02595  2.7764
 3.35000    1.89     1.91   2.02588  2.7767
 3.30000    1.89     1.91   2.02530  2.7765
 3.25000    1.89     1.91   2.02528  2.7763
 3.20000    1.89     1.91   2.02611  2.7766
 3.15000    1.89     1.91   2.02566  2.7765
 3.10000    1.89     1.91   2.02598  2.7764
 3.05000    1.89     1.91   2.02462  2.7763
 3.00000    1.89     1.91   2.02300  2.7763
 2.95000    1.89     1.91   2.02516  2.7766
 2.90000    1.89     1.91   2.02623  2.7765
 2.85000    1.89     1.91   2.02568  2.7766
 2.80000    1.89     1.91   2.02514  2.7765
 2.75000    1.89     1.91   2.02786  2.7766
 2.70000    1.88     1.91   2.02648  2.7767
 2.65000    1.88     1.91   2.02604  2.7767
 2.60000    1.88     1.91   2.02730  2.7767
 2.55000    1.88     1.91   2.02796  2.7768
 2.50000    1.88     1.90   2.02947  2.7768
 2.45000    1.88     1.90   2.02760  2.7767
 2.40000    1.88     1.90   2.03007  2.7767
 2.35000    1.88     1.90   2.02949  2.7768
 2.30000    1.88     1.90   2.02886  2.7767
 2.25000    1.88     1.90   2.03015  2.7768
 2.20000    1.88     1.90   2.02989  2.7767
 2.15000    1.88     1.90   2.02874  2.7765
 2.10000    1.88     1.90   2.03201  2.7764
 2.05000    1.88     1.90   2.03303  2.7769
 2.00000    1.88     1.90   2.03299  2.7770
 1.95000    1.88     1.90   2.03345  2.7767
 1.90000    1.88     1.90   2.03553  2.7766
 1.85000    1.88     1.90   2.03832  2.7768
 1.80000    1.88     1.90   2.03757  2.7770
 1.75000    1.88     1.90   2.03872  2.7771
 1.70000    1.88     1.90   2.04025  2.7769
 1.65000    1.88     1.90   2.04144  2.7767
 1.60000    1.87     1.90   2.04200  2.7770
 1.55000    1.87     1.90   2.04326  2.7772
 1.50000    1.87     1.90   2.04301  2.7768
 1.45000    1.87     1.90   2.04320  2.7764
 1.40000    1.87     1.89   2.04420  2.7768
 1.35000    1.87     1.89   2.04471  2.7767
 1.30000    1.87     1.89   2.04709  2.7766
 1.25000    1.87     1.89   2.04628  2.7765
 1.20000    1.87     1.89   2.04731  2.7766
 1.15000    1.87     1.89   2.04609  2.7766
 1.10000    1.87     1.89   2.04772  2.7764
 1.05000    1.87     1.89   2.04841  2.7765
 1.00000    1.87     1.89   2.04685  2.7764
 0.95000    1.87     1.89   2.04666  2.7766
 0.90000    1.87     1.89   2.04785  2.7764
 0.85000    1.87     1.89   2.04948  2.7766
 0.80000    1.87     1.89   2.05100  2.7767
 0.75000    1.87     1.89   2.05160  2.7769
 0.70000    1.87     1.89   2.05106  2.7768
 0.65000    1.87     1.89   2.05058  2.7770
 0.60000    1.86     1.89   2.05083  2.7771
 0.55000    1.86     1.89   2.05278  2.7768
 0.50000    1.86     1.89   2.05100  2.7766
 0.45000    1.86     1.89   2.05093  2.7769
 0.40000    1.86     1.89   2.05287  2.7770
 0.35000    1.86     1.89   2.05330  2.7769
 0.30000    1.86     1.89   2.05546  2.7765
 0.25000    1.86     1.89   2.05502  2.7765
 0.20000    1.86     1.89   2.05231  2.7765
 0.15000    1.86     1.89   2.05274  2.7766
 0.10000    1.86     1.89   2.05821  2.7766
 0.05000    1.86     1.89   2.05592  2.7765
-0.00000    1.86     1.89   2.05637  2.7766
