 Field[T] Tsmpl[K] Tcntr[K] Signal Mirror[MM] RefSignal
 0.00000    4.87     2.88   1.45048  3.2774   1.08126
 0.05000    4.84     2.88   1.45075  3.2774   1.08086
 0.10000    4.79     2.87   1.44957  3.2772   1.08088
 0.15000    4.76     2.88   1.44903  3.2771   1.07972
 0.20000    4.74     2.88   1.44917  3.2770   1.08083
 0.25000    4.71     2.87   1.44880  3.2770   1.07918
 0.30000    4.68     2.88   1.44879  3.2769   1.08031
 0.35000    4.67     2.89   1.44881  3.2768   1.07974
 0.40000    4.65     2.88   1.44906  3.2766   1.08008
 0.45000    4.65     2.89   1.44971  3.2764   1.07997
 0.50000    4.64     2.90   1.45002  3.2764   1.07980
 0.55000    4.63     2.89   1.45003  3.2764   1.08051
 0.60000    4.63     2.89   1.45067  3.2762   1.08005
 0.65000    4.62     2.90   1.45106  3.2762   1.08205
 0.70000    4.61     2.89   1.45205  3.2762   1.08102
 0.75000    4.60     2.91   1.45116  3.2762   1.08120
 0.80000    4.60     2.90   1.44987  3.2762   1.08134
 0.85000    4.60     2.90   1.44829  3.2762   1.07936
 0.90000    4.59     2.91   1.44784  3.2760   1.08000
 0.95000    4.59     2.91   1.44692  3.2760   1.07943
 1.00000    4.58     2.92   1.44672  3.2761   1.07951
 1.05000    4.57     2.92   1.44655  3.2761   1.07929
 1.10000    4.57     2.92   1.44690  3.2761   1.07973
 1.15000    4.57     2.91   1.44647  3.2761   1.08186
 1.20000    4.56     2.92   1.44653  3.2761   1.08105
 1.25000    4.55     2.92   1.44711  3.2761   1.08058
 1.30000    4.55     2.93   1.44735  3.2761   1.08083
 1.35000    4.55     2.93   1.44538  3.2762   1.08172
 1.40000    4.54     2.93   1.44387  3.2761   1.07858
 1.45000    4.53     2.93   1.44232  3.2762   1.07910
 1.50000    4.53     2.94   1.44156  3.2763   1.07841
 1.55000    4.53     2.94   1.44084  3.2764   1.07864
 1.60000    4.52     2.94   1.43979  3.2764   1.07950
 1.65000    4.51     2.96   1.43880  3.2765   1.07800
 1.70000    4.51     2.94   1.43726  3.2766   1.07806
 1.75000    4.51     2.95   1.43475  3.2769   1.07699
 1.80000    4.50     2.95   1.43222  3.2771   1.07864
 1.85000    4.49     2.96   1.42938  3.2772   1.07848
 1.90000    4.49     2.97   1.42133  3.2773   1.08003
 1.95000    4.49     2.98   1.41074  3.2771   1.07821
 2.00000    4.48     2.96   1.40354  3.2765   1.07839
 2.05000    4.47     2.98   1.40164  3.2758   1.07768
 2.10000    4.47     2.97   1.40268  3.2752   1.08031
 2.15000    4.47     2.96   1.40638  3.2749   1.07721
 2.20000    4.45     2.96   1.41152  3.2747   1.07906
 2.25000    4.45     2.97   1.41550  3.2746   1.07912
 2.30000    4.45     2.98   1.41693  3.2746   1.07943
 2.35000    4.45     2.97   1.41738  3.2748   1.07615
 2.40000    4.45     2.98   1.41788  3.2747   1.07616
 2.45000    4.45     2.98   1.41780  3.2747   1.07645
 2.50000    4.45     2.98   1.41760  3.2748   1.07594
 2.55000    4.45     2.99   1.41718  3.2751   1.07783
 2.60000    4.46     3.00   1.41735  3.2747   1.07724
 2.65000    4.47     2.99   1.41899  3.2745   1.08045
 2.70000    4.48     2.99   1.41834  3.2746   1.07962
 2.75000    4.49     2.99   1.41728  3.2744   1.07753
 2.80000    4.51     3.00   1.41784  3.2744   1.07851
 2.85000    4.53     3.00   1.41837  3.2742   1.07808
 2.90000    4.54     3.01   1.41961  3.2742   1.07862
 2.95000    4.56     2.99   1.42092  3.2740   1.07787
 3.00000    4.58     3.01   1.42211  3.2740   1.07938
 3.05000    4.59     3.01   1.42365  3.2739   1.07801
 3.10000    4.60     3.00   1.42394  3.2742   1.07864
 3.15000    4.61     3.01   1.42412  3.2742   1.08012
 3.20000    4.62     3.01   1.42451  3.2743   1.07850
 3.25000    4.62     3.00   1.42520  3.2742   1.07859
 3.30000    4.63     3.01   1.42535  3.2743   1.07795
 3.35000    4.64     3.01   1.42594  3.2743   1.07940
 3.40000    4.65     3.00   1.42745  3.2744   1.07905
 3.45000    4.66     3.00   1.42709  3.2743   1.08043
 3.50000    4.67     3.00   1.42625  3.2743   1.07855
 3.55000    4.67     3.01   1.42629  3.2743   1.07945
 3.60000    4.68     3.00   1.42629  3.2743   1.08006
 3.65000    4.68     2.99   1.42677  3.2743   1.07892
 3.70000    4.68     3.00   1.42753  3.2744   1.07954
 3.75000    4.68     3.00   1.42801  3.2744   1.07958
 3.80000    4.68     3.00   1.42897  3.2744   1.08080
 3.85000    4.69     3.00   1.42973  3.2745   1.08272
 3.90000    4.71     3.00   1.42880  3.2744   1.07932
 3.95000    4.72     3.01   1.42852  3.2745   1.07980
 4.00000    4.73     3.01   1.42839  3.2745   1.07963
 4.05000    4.74     3.01   1.42857  3.2747   1.07939
 4.10000    4.74     3.02   1.42936  3.2747   1.08214
 4.15000    4.74     3.01   1.42965  3.2748   1.08106
 4.20000    4.74     3.01   1.42858  3.2747   1.08085
 4.25000    4.74     3.02   1.42782  3.2748   1.08025
 4.30000    4.75     3.01   1.42772  3.2747   1.08083
 4.35000    4.75     3.01   1.42744  3.2748   1.08084
 4.40000    4.75     3.01   1.42717  3.2749   1.07973
 4.45000    4.75     3.01   1.42715  3.2749   1.07855
 4.50000    4.75     3.02   1.42717  3.2752   1.08095
 4.55000    4.75     3.02   1.42789  3.2751   1.08016
 4.60000    4.76     3.02   1.42900  3.2751   1.08021
 4.65000    4.76     3.02   1.42849  3.2752   1.08027
 4.70000    4.76     3.01   1.42726  3.2752   1.08018
 4.75000    4.77     3.01   1.42719  3.2752   1.07973
 4.80000    4.77     3.01   1.42719  3.2752   1.07962
 4.85000    4.78     3.02   1.42969  3.2754   1.08114
 4.90000    4.79     3.01   1.42825  3.2754   1.08155
 4.95000    4.80     3.01   1.42676  3.2756   1.08001
 5.00000    4.82     3.03   1.42623  3.2756   1.07854
