 Field[T] Tsmpl[K] Tcntr[K] Signal Mirror[MM] RefSignal
 5.00000    4.77     3.05   1.69156  2.6924   7.53875
 4.95000    4.78     3.04   1.69200  2.6924   7.53680
 4.90000    4.79     3.05   1.69277  2.6922   7.53848
 4.85000    4.80     3.05   1.69269  2.6923   7.54036
 4.80000    4.81     3.07   1.69311  2.6924   7.53901
 4.75000    4.83     3.08   1.69282  2.6923   7.54118
 4.70000    4.84     3.07   1.69361  2.6924   7.54356
 4.65000    4.84     3.08   1.69423  2.6924   7.54076
 4.60000    4.86     3.08   1.69492  2.6923   7.54472
 4.55000    4.87     3.08   1.69509  2.6924   7.54277
 4.50000    4.89     3.08   1.69531  2.6923   7.54255
 4.45000    4.90     3.08   1.69554  2.6924   7.54641
 4.40000    4.91     3.09   1.69610  2.6923   7.54579
 4.35000    4.92     3.09   1.69631  2.6923   7.54494
 4.30000    4.94     3.10   1.69678  2.6920   7.54613
 4.25000    4.96     3.09   1.69726  2.6919   7.54781
 4.20000    4.97     3.09   1.69743  2.6921   7.54896
 4.15000    4.98     3.09   1.69887  2.6918   7.54987
 4.10000    4.99     3.08   1.69878  2.6918   7.55068
 4.05000    5.01     3.09   1.69958  2.6919   7.55159
 4.00000    5.03     3.09   1.69946  2.6919   7.55098
 3.95000    5.04     3.09   1.69986  2.6919   7.55407
 3.90000    5.05     3.08   1.70000  2.6923   7.55273
 3.85000    5.06     3.08   1.70029  2.6920   7.55429
 3.80000    5.07     3.09   1.70026  2.6920   7.55367
 3.75000    5.09     3.08   1.70115  2.6920   7.55887
 3.70000    5.09     3.08   1.70119  2.6920   7.55934
 3.65000    5.10     3.07   1.70209  2.6917   7.55760
 3.60000    5.11     3.07   1.70263  2.6918   7.55765
 3.55000    5.11     3.05   1.70291  2.6917   7.56038
 3.50000    5.12     3.07   1.70258  2.6916   7.55619
 3.45000    5.13     3.06   1.70304  2.6915   7.55750
 3.40000    5.14     3.06   1.70394  2.6914   7.56246
 3.35000    5.14     3.04   1.70451  2.6915   7.56091
 3.30000    5.15     3.05   1.70472  2.6914   7.56153
 3.25000    5.16     3.07   1.70441  2.6914   7.56122
 3.20000    5.17     3.04   1.70489  2.6914   7.56054
 3.15000    5.17     3.05   1.70484  2.6914   7.55947
 3.10000    5.17     3.04   1.70512  2.6914   7.56263
 3.05000    5.18     3.04   1.70592  2.6911   7.56651
 3.00000    5.22     3.05   1.70620  2.6912   7.56364
 2.95000    5.20     3.05   1.70644  2.6913   7.56778
 2.90000    5.21     3.04   1.70733  2.6910   7.56934
 2.85000    5.20     3.03   1.70706  2.6910   7.56669
 2.80000    5.24     3.04   1.70709  2.6909   7.56740
 2.75000    5.24     3.03   1.70742  2.6910   7.56765
 2.70000    5.24     3.03   1.70779  2.6910   7.57011
 2.65000    5.24     3.03   1.70817  2.6909   7.57198
 2.60000    5.24     3.02   1.70789  2.6906   7.57185
 2.55000    5.23     3.03   1.70823  2.6907   7.57104
 2.50000    5.23     3.02   1.70831  2.6907   7.57210
 2.45000    5.21     3.01   1.70839  2.6906   7.57341
 2.40000    5.22     3.02   1.70815  2.6905   7.57329
 2.35000    5.21     3.00   1.70825  2.6905   7.57425
 2.30000    5.21     3.02   1.70849  2.6904   7.57467
 2.25000    5.22     3.02   1.70805  2.6902   7.57675
 2.20000    5.24     3.01   1.70834  2.6902   7.57858
 2.15000    5.26     3.01   1.70829  2.6900   7.57742
 2.10000    5.27     3.02   1.70795  2.6899   7.57836
 2.05000    5.26     3.01   1.70697  2.6898   7.58186
 2.00000    5.25     3.01   1.70680  2.6897   7.57958
 1.95000    5.27     3.02   1.70682  2.6894   7.58038
 1.90000    5.30     3.01   1.70533  2.6893   7.58291
 1.85000    5.30     3.01   1.70485  2.6892   7.58114
 1.80000    5.27     2.99   1.70375  2.6891   7.58410
 1.75000    5.23     3.00   1.70285  2.6889   7.58214
 1.70000    5.25     3.01   1.70166  2.6887   7.58364
 1.65000    5.26     3.03   1.69985  2.6887   7.58429
 1.60000    5.25     3.00   1.69783  2.6886   7.58371
 1.55000    5.22     2.99   1.69602  2.6884   7.58137
 1.50000    5.21     3.01   1.69452  2.6884   7.58577
 1.45000    5.18     2.99   1.69227  2.6882   7.58393
 1.40000    5.18     3.00   1.68982  2.6880   7.58321
 1.35000    5.19     3.01   1.68682  2.6882   7.58953
 1.30000    5.21     3.00   1.68380  2.6881   7.58768
 1.25000    5.22     3.00   1.67984  2.6882   7.58673
 1.20000    5.21     3.02   1.67638  2.6881   7.59099
 1.15000    5.22     2.99   1.67133  2.6879   7.58888
 1.10000    5.23     3.01   1.66538  2.6880   7.59322
 1.05000    5.25     3.01   1.65836  2.6883   7.59432
 1.00000    5.24     3.01   1.64999  2.6890   7.59343
 0.95000    5.23     3.03   1.64123  2.6902   7.59579
 0.90000    5.19     2.99   1.63596  2.6919   7.59600
 0.85000    5.21     3.01   1.63594  2.6938   7.59520
 0.80000    5.21     3.00   1.64177  2.6952   7.59610
 0.75000    5.20     3.00   1.64833  2.6961   7.59215
 0.70000    5.17     2.99   1.65486  2.6966   7.59696
 0.65000    5.14     2.99   1.66054  2.6970   7.59642
 0.60000    5.17     3.02   1.66427  2.6972   7.59787
 0.55000    5.16     2.99   1.66840  2.6971   7.59759
 0.50000    5.15     2.99   1.67040  2.6974   7.59987
 0.45000    5.15     2.99   1.67280  2.6976   7.59940
 0.40000    5.16     3.00   1.67459  2.6976   7.60189
 0.35000    5.19     3.01   1.67602  2.6976   7.59911
 0.30000    5.20     3.02   1.67702  2.6978   7.60160
 0.25000    5.19     3.01   1.67857  2.6980   7.60282
 0.20000    5.13     2.98   1.67979  2.6979   7.60557
 0.15000    5.14     3.00   1.67984  2.6979   7.60791
 0.10000    5.13     2.99   1.68034  2.6981   7.60807
 0.05000    5.09     2.99   1.68027  2.6983   7.61003
-0.00000    5.04     3.01   1.68035  2.6984   7.60695
