 Field[T] Tsmpl[K] Tcntr[K] Signal Mirror[MM] RefSignal
 0.00000    5.02     2.89   1.09115  2.6814   1.03744
 0.05000    4.99     2.89   1.09073  2.6814   1.03739
 0.10000    4.96     2.90   1.09079  2.6812   1.03647
 0.15000    4.93     2.88   1.09026  2.6812   1.03736
 0.20000    4.90     2.88   1.08989  2.6810   1.03688
 0.25000    4.87     2.88   1.08970  2.6810   1.03772
 0.30000    4.85     2.88   1.08879  2.6809   1.03656
 0.35000    4.83     2.87   1.08841  2.6808   1.03645
 0.40000    4.80     2.88   1.08813  2.6808   1.03693
 0.45000    4.79     2.88   1.08687  2.6809   1.03674
 0.50000    4.76     2.87   1.08584  2.6808   1.03683
 0.55000    4.74     2.88   1.08428  2.6809   1.03741
 0.60000    4.72     2.87   1.08310  2.6808   1.03702
 0.65000    4.70     2.88   1.08098  2.6809   1.03718
 0.70000    4.68     2.87   1.07855  2.6809   1.03627
 0.75000    4.66     2.87   1.07591  2.6808   1.03516
 0.80000    4.65     2.87   1.07171  2.6809   1.03658
 0.85000    4.62     2.87   1.06729  2.6804   1.03849
 0.90000    4.59     2.87   1.06132  2.6799   1.03570
 0.95000    4.57     2.88   1.05676  2.6784   1.03576
 1.00000    4.54     2.87   1.05520  2.6766   1.03602
 1.05000    4.51     2.88   1.05761  2.6750   1.03603
 1.10000    4.48     2.88   1.06203  2.6738   1.03664
 1.15000    4.46     2.88   1.06615  2.6733   1.03526
 1.20000    4.43     2.88   1.06962  2.6728   1.03679
 1.25000    4.41     2.89   1.07273  2.6725   1.03638
 1.30000    4.38     2.89   1.07541  2.6723   1.03560
 1.35000    4.34     2.89   1.07808  2.6721   1.03636
 1.40000    4.33     2.91   1.07953  2.6720   1.03589
 1.45000    4.31     2.91   1.08205  2.6721   1.03627
 1.50000    4.28     2.90   1.08410  2.6720   1.03602
 1.55000    4.27     2.91   1.08544  2.6719   1.03606
 1.60000    4.25     2.91   1.08685  2.6720   1.03491
 1.65000    4.25     2.92   1.08839  2.6720   1.03663
 1.70000    4.24     2.94   1.08956  2.6720   1.03589
 1.75000    4.25     2.94   1.09075  2.6720   1.03601
 1.80000    4.25     2.93   1.09187  2.6721   1.03680
 1.85000    4.25     2.94   1.09321  2.6722   1.03561
 1.90000    4.26     2.96   1.09411  2.6722   1.03690
 1.95000    4.27     2.96   1.09453  2.6723   1.03520
 2.00000    4.27     2.95   1.09513  2.6724   1.03522
 2.05000    4.27     2.97   1.09571  2.6722   1.03587
 2.10000    4.28     2.95   1.09589  2.6726   1.03545
 2.15000    4.28     2.96   1.09623  2.6726   1.03440
 2.20000    4.28     2.97   1.09722  2.6727   1.03742
 2.25000    4.29     2.97   1.09739  2.6729   1.03572
 2.30000    4.30     2.98   1.09765  2.6727   1.03724
 2.35000    4.31     2.97   1.09822  2.6728   1.03460
 2.40000    4.33     2.99   1.09816  2.6730   1.03634
 2.45000    4.34     2.99   1.09839  2.6732   1.03683
 2.50000    4.35     2.99   1.09853  2.6731   1.03662
 2.55000    4.36     2.98   1.09904  2.6732   1.03597
 2.60000    4.36     2.98   1.09884  2.6733   1.03519
 2.65000    4.36     3.01   1.09908  2.6733   1.03555
 2.70000    4.37     2.99   1.09903  2.6736   1.03589
 2.75000    4.37     2.99   1.09878  2.6735   1.03738
 2.80000    4.37     3.00   1.09839  2.6735   1.03703
 2.85000    4.37     3.00   1.09853  2.6736   1.03703
 2.90000    4.37     2.99   1.09857  2.6737   1.03620
 2.95000    4.37     2.99   1.09871  2.6736   1.03425
 3.00000    4.36     3.01   1.09874  2.6737   1.03513
 3.05000    4.36     3.00   1.09837  2.6737   1.03639
 3.10000    4.36     3.00   1.09820  2.6739   1.03491
 3.15000    4.36     2.99   1.09833  2.6740   1.03510
 3.20000    4.36     3.01   1.09788  2.6739   1.03649
 3.25000    4.37     3.01   1.09771  2.6739   1.03597
 3.30000    4.37     3.01   1.09766  2.6741   1.03475
 3.35000    4.39     3.03   1.09760  2.6740   1.03449
 3.40000    4.40     3.01   1.09740  2.6742   1.03562
 3.45000    4.42     3.01   1.09711  2.6744   1.03533
 3.50000    4.43     3.01   1.09710  2.6745   1.03654
 3.55000    4.44     3.02   1.09714  2.6745   1.03512
 3.60000    4.45     3.01   1.09702  2.6744   1.03709
 3.65000    4.45     3.03   1.09689  2.6746   1.03583
 3.70000    4.47     3.03   1.09631  2.6746   1.03447
 3.75000    4.48     3.03   1.09624  2.6745   1.03504
 3.80000    4.49     3.02   1.09636  2.6744   1.03466
 3.85000    4.50     3.02   1.09583  2.6745   1.03463
 3.90000    4.51     3.02   1.09596  2.6748   1.03450
 3.95000    4.51     3.02   1.09584  2.6747   1.03548
 4.00000    4.51     3.02   1.09532  2.6748   1.03554
 4.05000    4.49     3.02   1.09546  2.6749   1.03529
 4.10000    4.48     3.02   1.09563  2.6749   1.03536
 4.15000    4.49     3.02   1.09548  2.6748   1.03635
 4.20000    4.49     3.01   1.09500  2.6750   1.03590
 4.25000    4.49     3.01   1.09483  2.6751   1.03556
 4.30000    4.50     3.02   1.09490  2.6749   1.03515
 4.35000    4.52     3.01   1.09461  2.6750   1.03562
 4.40000    4.53     3.01   1.09477  2.6752   1.03578
 4.45000    4.55     3.02   1.09419  2.6751   1.03482
 4.50000    4.56     3.01   1.09434  2.6750   1.03558
 4.55000    4.57     3.01   1.09409  2.6752   1.03534
 4.60000    4.58     3.00   1.09415  2.6751   1.03627
 4.65000    4.59     3.01   1.09392  2.6752   1.03534
 4.70000    4.59     3.01   1.09347  2.6754   1.03611
 4.75000    4.60     3.02   1.09345  2.6755   1.03602
 4.80000    4.60     3.00   1.09312  2.6754   1.03634
 4.85000    4.61     3.01   1.09284  2.6752   1.03426
 4.90000    4.61     3.01   1.09277  2.6753   1.03449
 4.95000    4.61     3.00   1.09242  2.6756   1.03596
 5.00000    4.61     3.00   1.09241  2.6755   1.03546
