 Field[T] Tsmpl[K] Tcntr[K] Signal Mirror[MM] RefSignal
 5.00000    5.28     3.06   2.60026  2.6824   4.54385
 4.95000    5.29     3.05   2.60140  2.6823   4.54467
 4.90000    5.30     3.05   2.60222  2.6825   4.54350
 4.85000    5.30     3.05   2.60234  2.6825   4.54316
 4.80000    5.30     3.05   2.60337  2.6824   4.54313
 4.75000    5.30     3.06   2.60252  2.6824   4.54314
 4.70000    5.30     3.07   2.60262  2.6823   4.54396
 4.65000    5.31     3.06   2.60325  2.6821   4.54508
 4.60000    5.32     3.06   2.60428  2.6822   4.54369
 4.55000    5.32     3.07   2.60392  2.6823   4.54449
 4.50000    5.33     3.07   2.60488  2.6822   4.54478
 4.45000    5.33     3.06   2.60493  2.6820   4.54565
 4.40000    5.33     3.07   2.60530  2.6820   4.54709
 4.35000    5.34     3.07   2.60688  2.6819   4.54317
 4.30000    5.35     3.06   2.60824  2.6819   4.54663
 4.25000    5.35     3.06   2.60663  2.6819   4.54581
 4.20000    5.36     3.05   2.60710  2.6820   4.54733
 4.15000    5.37     3.06   2.60757  2.6818   4.54729
 4.10000    5.38     3.06   2.60813  2.6816   4.54608
 4.05000    5.39     3.06   2.60791  2.6816   4.54603
 4.00000    5.40     3.05   2.60774  2.6817   4.54615
 3.95000    5.41     3.05   2.60910  2.6817   4.54692
 3.90000    5.42     3.04   2.60927  2.6817   4.54397
 3.85000    5.43     3.05   2.60933  2.6818   4.54641
 3.80000    5.44     3.06   2.60988  2.6817   4.54691
 3.75000    5.45     3.04   2.61078  2.6816   4.54899
 3.70000    5.45     3.03   2.60991  2.6817   4.54702
 3.65000    5.46     3.02   2.61060  2.6814   4.54925
 3.60000    5.46     3.04   2.61125  2.6812   4.54864
 3.55000    5.47     3.02   2.61215  2.6814   4.55012
 3.50000    5.47     3.02   2.61287  2.6815   4.54812
 3.45000    5.47     3.02   2.61311  2.6815   4.54928
 3.40000    5.47     3.02   2.61361  2.6816   4.55103
 3.35000    5.47     3.03   2.61346  2.6815   4.55056
 3.30000    5.47     3.01   2.61353  2.6814   4.55032
 3.25000    5.48     3.01   2.61412  2.6811   4.55071
 3.20000    5.48     3.02   2.61409  2.6812   4.54948
 3.15000    5.48     3.01   2.61425  2.6809   4.55049
 3.10000    5.47     3.03   2.61447  2.6809   4.55158
 3.05000    5.47     3.01   2.61471  2.6809   4.55153
 3.00000    5.47     3.00   2.61493  2.6808   4.55319
 2.95000    5.47     3.01   2.61529  2.6805   4.55236
 2.90000    5.47     3.00   2.61492  2.6804   4.55306
 2.85000    5.47     3.01   2.61539  2.6804   4.55008
 2.80000    5.47     3.03   2.61504  2.6803   4.55277
 2.75000    5.47     3.00   2.61571  2.6804   4.55445
 2.70000    5.47     3.00   2.61405  2.6802   4.55136
 2.65000    5.47     3.01   2.61470  2.6802   4.55216
 2.60000    5.47     3.00   2.61429  2.6802   4.55402
 2.55000    5.47     3.01   2.61514  2.6800   4.55559
 2.50000    5.47     3.00   2.61501  2.6799   4.55517
 2.45000    5.47     3.00   2.61440  2.6798   4.55574
 2.40000    5.47     3.00   2.61401  2.6798   4.55498
 2.35000    5.47     3.01   2.61369  2.6797   4.55709
 2.30000    5.47     3.00   2.61321  2.6796   4.55686
 2.25000    5.47     3.00   2.61207  2.6795   4.55728
 2.20000    5.47     3.00   2.61062  2.6794   4.55842
 2.15000    5.47     3.02   2.60982  2.6791   4.55940
 2.10000    5.47     3.00   2.60926  2.6792   4.55784
 2.05000    5.46     3.01   2.60759  2.6789   4.55878
 2.00000    5.45     3.01   2.60571  2.6788   4.55890
 1.95000    5.45     3.00   2.60449  2.6788   4.55839
 1.90000    5.44     3.00   2.60191  2.6786   4.55940
 1.85000    5.44     2.99   2.59983  2.6786   4.55818
 1.80000    5.43     3.01   2.59676  2.6787   4.55898
 1.75000    5.43     3.00   2.59332  2.6786   4.55851
 1.70000    5.43     3.00   2.59030  2.6785   4.56039
 1.65000    5.42     3.00   2.58608  2.6784   4.56032
 1.60000    5.42     3.00   2.58094  2.6784   4.56256
 1.55000    5.41     3.00   2.57691  2.6781   4.56185
 1.50000    5.41     3.00   2.57261  2.6783   4.56083
 1.45000    5.41     3.01   2.56716  2.6783   4.56282
 1.40000    5.41     3.00   2.56143  2.6784   4.56292
 1.35000    5.39     2.99   2.55455  2.6785   4.56092
 1.30000    5.38     3.00   2.54729  2.6784   4.56328
 1.25000    5.38     2.99   2.53541  2.6786   4.56195
 1.20000    5.37     2.99   2.52288  2.6790   4.56272
 1.15000    5.37     3.01   2.51060  2.6801   4.56327
 1.10000    5.37     3.00   2.50440  2.6818   4.56547
 1.05000    5.37     3.00   2.50909  2.6832   4.56412
 1.00000    5.37     3.00   2.51909  2.6842   4.56215
 0.95000    5.37     3.00   2.53014  2.6849   4.56456
 0.90000    5.37     3.00   2.54025  2.6853   4.56631
 0.85000    5.36     3.01   2.54889  2.6853   4.56518
 0.80000    5.36     3.00   2.55547  2.6855   4.56538
 0.75000    5.36     3.00   2.55967  2.6856   4.56409
 0.70000    5.36     3.00   2.56375  2.6855   4.56417
 0.65000    5.35     3.00   2.56756  2.6857   4.56399
 0.60000    5.35     3.01   2.57108  2.6858   4.56493
 0.55000    5.34     3.00   2.57304  2.6857   4.56656
 0.50000    5.34     2.99   2.57471  2.6860   4.56664
 0.45000    5.32     2.99   2.57603  2.6860   4.56776
 0.40000    5.32     2.99   2.57837  2.6857   4.56614
 0.35000    5.31     3.00   2.58032  2.6858   4.56753
 0.30000    5.30     3.00   2.58105  2.6859   4.56846
 0.25000    5.30     2.99   2.58208  2.6862   4.57002
 0.20000    5.31     3.00   2.58308  2.6861   4.56823
 0.15000    5.28     2.99   2.58235  2.6863   4.56888
 0.10000    5.27     3.00   2.58391  2.6864   4.56922
 0.05000    5.26     3.00   2.58450  2.6864   4.56728
-0.00000    5.25     2.99   2.58469  2.6867   4.57149
