 Field[T] Tsmpl[K] Tcntr[K] Signal Mirror[MM] RefSignal
 5.00000    5.40     3.01   1.70327  2.6809   2.45275
 4.95000    5.40     3.00   1.70188  2.6805   2.45265
 4.90000    5.40     3.00   1.70054  2.6805   2.45245
 4.85000    5.40     3.00   1.69899  2.6805   2.45094
 4.80000    5.40     3.01   1.69837  2.6805   2.44983
 4.75000    5.40     3.01   1.69670  2.6805   2.45014
 4.70000    5.41     3.00   1.69670  2.6806   2.44940
 4.65000    5.40     3.01   1.69530  2.6807   2.44641
 4.60000    5.41     3.00   1.69454  2.6804   2.44678
 4.55000    5.41     3.01   1.69387  2.6805   2.44713
 4.50000    5.41     3.00   1.69308  2.6805   2.44448
 4.45000    5.41     3.01   1.69211  2.6805   2.44505
 4.40000    5.42     3.01   1.69224  2.6803   2.44185
 4.35000    5.43     3.00   1.69178  2.6803   2.44503
 4.30000    5.44     3.00   1.69060  2.6802   2.44423
 4.25000    5.44     3.00   1.68978  2.6803   2.44208
 4.20000    5.45     3.02   1.68956  2.6803   2.44091
 4.15000    5.45     3.00   1.68917  2.6803   2.44175
 4.10000    5.45     3.00   1.68929  2.6800   2.44072
 4.05000    5.45     3.00   1.68865  2.6799   2.44096
 4.00000    5.45     3.00   1.68798  2.6800   2.43991
 3.95000    5.46     3.01   1.68764  2.6800   2.43994
 3.90000    5.46     3.01   1.68770  2.6798   2.43919
 3.85000    5.47     3.00   1.68721  2.6799   2.44043
 3.80000    5.47     3.00   1.68797  2.6798   2.43979
 3.75000    5.46     3.00   1.68661  2.6799   2.43878
 3.70000    5.46     3.00   1.68684  2.6798   2.43873
 3.65000    5.46     3.00   1.68681  2.6797   2.43918
 3.60000    5.47     3.00   1.68701  2.6799   2.43900
 3.55000    5.47     3.01   1.68659  2.6798   2.43921
 3.50000    5.48     3.01   1.68627  2.6795   2.43696
 3.45000    5.49     3.00   1.68603  2.6794   2.43839
 3.40000    5.49     3.01   1.68592  2.6795   2.43775
 3.35000    5.50     3.02   1.68546  2.6796   2.43758
 3.30000    5.51     3.01   1.68542  2.6796   2.43753
 3.25000    5.52     3.01   1.68489  2.6795   2.43862
 3.20000    5.53     3.00   1.68522  2.6798   2.43967
 3.15000    5.54     3.00   1.68462  2.6797   2.43910
 3.10000    5.55     3.00   1.68320  2.6795   2.43710
 3.05000    5.55     3.02   1.68434  2.6793   2.43826
 3.00000    5.56     3.01   1.68352  2.6793   2.43795
 2.95000    5.56     3.01   1.68310  2.6793   2.44038
 2.90000    5.56     3.00   1.68257  2.6789   2.44064
 2.85000    5.56     3.00   1.68227  2.6788   2.43762
 2.80000    5.56     2.99   1.68188  2.6790   2.43909
 2.75000    5.55     3.01   1.68150  2.6790   2.44025
 2.70000    5.55     3.00   1.68098  2.6789   2.43911
 2.65000    5.55     3.00   1.68048  2.6788   2.43893
 2.60000    5.55     3.01   1.67908  2.6784   2.43928
 2.55000    5.55     3.00   1.67861  2.6785   2.43838
 2.50000    5.55     2.99   1.67738  2.6784   2.43896
 2.45000    5.55     3.00   1.67706  2.6785   2.43961
 2.40000    5.55     3.00   1.67599  2.6784   2.43949
 2.35000    5.54     3.01   1.67451  2.6782   2.44042
 2.30000    5.54     3.02   1.67390  2.6781   2.43921
 2.25000    5.55     3.00   1.67210  2.6781   2.44036
 2.20000    5.55     3.00   1.67026  2.6781   2.43911
 2.15000    5.55     3.00   1.66851  2.6781   2.43972
 2.10000    5.54     3.00   1.66639  2.6781   2.44069
 2.05000    5.54     3.00   1.66458  2.6781   2.44251
 2.00000    5.54     3.00   1.66204  2.6780   2.44195
 1.95000    5.54     3.01   1.65956  2.6780   2.44283
 1.90000    5.55     3.02   1.65743  2.6782   2.44111
 1.85000    5.55     3.00   1.65475  2.6783   2.44057
 1.80000    5.55     3.01   1.65298  2.6785   2.44055
 1.75000    5.54     3.00   1.65120  2.6786   2.44051
 1.70000    5.53     3.00   1.64955  2.6786   2.43988
 1.65000    5.52     3.01   1.64615  2.6784   2.44211
 1.60000    5.52     3.00   1.64178  2.6786   2.44042
 1.55000    5.51     2.99   1.63551  2.6787   2.44213
 1.50000    5.50     2.99   1.62766  2.6790   2.43978
 1.45000    5.49     2.99   1.61958  2.6798   2.43982
 1.40000    5.48     3.00   1.61685  2.6814   2.44034
 1.35000    5.47     3.00   1.62084  2.6826   2.44253
 1.30000    5.46     2.99   1.62845  2.6834   2.44210
 1.25000    5.45     2.99   1.63875  2.6835   2.44332
 1.20000    5.44     2.99   1.64524  2.6836   2.44249
 1.15000    5.44     3.01   1.65053  2.6835   2.44418
 1.10000    5.43     3.00   1.65486  2.6837   2.44098
 1.05000    5.43     2.99   1.65865  2.6835   2.44378
 1.00000    5.42     3.00   1.66082  2.6835   2.44266
 0.95000    5.42     3.00   1.66292  2.6838   2.44245
 0.90000    5.41     3.00   1.66481  2.6838   2.44294
 0.85000    5.41     3.00   1.66678  2.6835   2.44293
 0.80000    5.40     3.00   1.66745  2.6836   2.44379
 0.75000    5.40     3.01   1.66838  2.6837   2.44260
 0.70000    5.40     3.00   1.66986  2.6838   2.44207
 0.65000    5.40     2.99   1.67090  2.6837   2.44301
 0.60000    5.39     2.99   1.67153  2.6838   2.44299
 0.55000    5.38     2.99   1.67236  2.6836   2.44421
 0.50000    5.37     3.00   1.67309  2.6838   2.44474
 0.45000    5.37     2.99   1.67279  2.6840   2.44358
 0.40000    5.36     2.99   1.67335  2.6840   2.44298
 0.35000    5.36     3.00   1.67394  2.6838   2.44775
 0.30000    5.36     2.99   1.67466  2.6840   2.44507
 0.25000    5.35     3.00   1.67461  2.6840   2.44517
 0.20000    5.35     3.00   1.67526  2.6841   2.44466
 0.15000    5.35     2.99   1.67477  2.6843   2.44377
 0.10000    5.35     2.99   1.67414  2.6845   2.44537
 0.05000    5.35     3.00   1.67493  2.6843   2.44601
-0.00000    5.35     2.99   1.67381  2.6845   2.44659
