 Field[T] Tsmpl[K] Tcntr[K] Signal   Mirror[MM]
 0.00000    1.87     1.87   0.11969  -18.9325
 0.10000    1.87     1.87   0.12067  -18.9319
 0.20000    1.87     1.87   0.12198  -18.9315
 0.30000    1.87     1.87   0.12406  -18.9311
 0.40000    1.87     1.87   0.12603  -18.9303
 0.50000    1.87     1.87   0.12798  -18.9294
 0.60000    1.87     1.87   0.12954  -18.9287
 0.70000    1.87     1.87   0.13103  -18.9281
 0.80000    1.87     1.87   0.13225  -18.9264
 0.90000    1.87     1.87   0.13311  -18.9252
 1.00000    1.87     1.87   0.13317  -18.9237
 1.10000    1.87     1.87   0.13299  -18.9218
 1.20000    1.87     1.87   0.13216  -18.9197
 1.30000    1.87     1.87   0.13072  -18.9177
 1.40000    1.87     1.87   0.12883  -18.9158
 1.50000    1.87     1.87   0.12800  -18.9152
 1.60000    1.87     1.87   0.12756  -18.9152
 1.70000    1.87     1.87   0.12821  -18.9163
 1.80000    1.87     1.87   0.12923  -18.9173
 1.90000    1.87     1.87   0.13096  -18.9187
 2.00000    1.87     1.87   0.13224  -18.9195
 2.10000    1.87     1.87   0.13339  -18.9199
 2.20000    1.87     1.87   0.13428  -18.9200
 2.30000    1.87     1.87   0.13477  -18.9197
 2.40000    1.87     1.87   0.13485  -18.9192
 2.50000    1.87     1.87   0.13504  -18.9190
 2.60000    1.87     1.87   0.13469  -18.9182
 2.70000    1.87     1.87   0.13438  -18.9174
 2.80000    1.87     1.87   0.13414  -18.9169
 2.90000    1.87     1.87   0.13354  -18.9163
 3.00000    1.87     1.87   0.13272  -18.9154
 3.10000    1.87     1.87   0.13232  -18.9148
 3.20000    1.87     1.87   0.13179  -18.9143
 3.30000    1.87     1.87   0.13137  -18.9138
 3.40000    1.87     1.87   0.13082  -18.9133
 3.50000    1.87     1.87   0.13033  -18.9128
 3.60000    1.87     1.87   0.12985  -18.9123
 3.70000    1.87     1.87   0.12933  -18.9119
 3.80000    1.87     1.87   0.12887  -18.9114
 3.90000    1.87     1.87   0.12854  -18.9111
 4.00000    1.87     1.87   0.12835  -18.9108
 4.10000    1.87     1.87   0.12785  -18.9105
 4.20000    1.87     1.87   0.12728  -18.9100
 4.30000    1.87     1.87   0.12669  -18.9094
 4.40000    1.87     1.87   0.12662  -18.9093
 4.50000    1.87     1.87   0.12619  -18.9089
 4.60000    1.87     1.87   0.12646  -18.9090
 4.70000    1.87     1.87   0.12578  -18.9085
 4.80000    1.87     1.87   0.12531  -18.9081
 4.90000    1.87     1.87   0.12493  -18.9078
 5.00000    1.87     1.87   0.12449  -18.9073
 5.10000    1.87     1.87   0.12425  -18.9072
 5.20000    1.87     1.87   0.12391  -18.9069
 5.30000    1.87     1.87   0.12350  -18.9065
 5.40000    1.87     1.87   0.12342  -18.9064
 5.50000    1.87     1.87   0.12343  -18.9064
 5.60000    1.87     1.87   0.12342  -18.9064
 5.70000    1.87     1.87   0.12265  -18.9058
 5.80000    1.87     1.87   0.12283  -18.9059
 5.90000    1.87     1.87   0.12226  -18.9054
 6.00000    1.87     1.87   0.12206  -18.9052
 6.10000    1.87     1.87   0.12175  -18.9050
 6.20000    1.87     1.87   0.12208  -18.9052
 6.30000    1.87     1.87   0.12147  -18.9047
 6.40000    1.87     1.87   0.12142  -18.9046
 6.50000    1.87     1.87   0.12154  -18.9047
 6.60000    1.87     1.87   0.12094  -18.9042
 6.70000    1.87     1.87   0.12086  -18.9041
 6.80000    1.87     1.87   0.11999  -18.9034
 6.90000    1.87     1.87   0.11983  -18.9032
 7.00000    1.87     1.87   0.11991  -18.9033
 7.00000    1.87     1.87   0.11998  -18.9034
 6.90000    1.87     1.87   0.12042  -18.9038
 6.80000    1.87     1.87   0.12041  -18.9038
 6.70000    1.87     1.87   0.12030  -18.9037
 6.60000    1.87     1.87   0.12072  -18.9040
 6.50000    1.87     1.87   0.12132  -18.9045
 6.40000    1.87     1.87   0.12142  -18.9046
 6.30000    1.87     1.87   0.12121  -18.9044
 6.20000    1.87     1.87   0.12183  -18.9049
 6.10000    1.87     1.87   0.12194  -18.9050
 6.00000    1.87     1.87   0.12249  -18.9055
 5.90000    1.87     1.87   0.12238  -18.9055
 5.80000    1.87     1.87   0.12246  -18.9057
 5.70000    1.87     1.87   0.12180  -18.9052
 5.60000    1.87     1.87   0.12274  -18.9059
 5.50000    1.87     1.87   0.12285  -18.9060
 5.40000    1.87     1.87   0.12293  -18.9061
 5.30000    1.87     1.87   0.12415  -18.9071
 5.20000    1.87     1.87   0.12435  -18.9073
 5.10000    1.87     1.87   0.12418  -18.9072
 5.00000    1.87     1.87   0.12443  -18.9075
 4.90000    1.87     1.87   0.12498  -18.9079
 4.80000    1.87     1.87   0.12508  -18.9080
 4.70000    1.87     1.87   0.12586  -18.9086
 4.60000    1.87     1.87   0.12598  -18.9088
 4.50000    1.87     1.87   0.12602  -18.9088
 4.40000    1.87     1.87   0.12667  -18.9094
 4.30000    1.87     1.87   0.12716  -18.9098
 4.20000    1.87     1.87   0.12711  -18.9098
 4.10000    1.87     1.87   0.12762  -18.9103
 4.00000    1.87     1.87   0.12773  -18.9104
 3.90000    1.87     1.87   0.12878  -18.9112
 3.80000    1.87     1.87   0.12893  -18.9114
 3.70000    1.87     1.87   0.12935  -18.9118
 3.60000    1.87     1.87   0.12791  -18.9106
 3.50000    1.87     1.87   0.12967  -18.9122
 3.40000    1.87     1.87   0.13121  -18.9135
 3.30000    1.87     1.87   0.13108  -18.9135
 3.20000    1.87     1.87   0.13128  -18.9138
 3.10000    1.87     1.87   0.13089  -18.9136
 3.00000    1.87     1.87   0.13246  -18.9151
 2.90000    1.87     1.87   0.13306  -18.9156
 2.80000    1.87     1.87   0.13329  -18.9160
 2.70000    1.87     1.87   0.13396  -18.9169
 2.60000    1.87     1.87   0.13456  -18.9177
 2.50000    1.87     1.87   0.13493  -18.9185
 2.40000    1.87     1.87   0.13489  -18.9188
 2.30000    1.87     1.87   0.13456  -18.9189
 2.20000    1.87     1.87   0.13406  -18.9191
 2.10000    1.87     1.87   0.13327  -18.9191
 2.00000    1.87     1.87   0.13212  -18.9187
 1.90000    1.87     1.87   0.13078  -18.9178
 1.80000    1.87     1.87   0.12934  -18.9165
 1.70000    1.87     1.87   0.12817  -18.9151
 1.60000    1.87     1.87   0.12753  -18.9142
 1.50000    1.87     1.87   0.12792  -18.9142
 1.40000    1.87     1.87   0.12885  -18.9146
 1.30000    1.87     1.87   0.12915  -18.9148
 1.20000    1.87     1.87   0.13204  -18.9178
 1.10000    1.87     1.87   0.13362  -18.9197
 1.00000    1.87     1.87   0.13497  -18.9220
 0.90000    1.87     1.87   0.13505  -18.9233
 0.80000    1.87     1.87   0.13476  -18.9242
 0.70000    1.87     1.87   0.13450  -18.9252
 0.60000    1.87     1.87   0.13367  -18.9253
 0.50000    1.87     1.87   0.13387  -18.9266
 0.40000    1.87     1.87   0.13341  -18.9277
 0.30000    1.87     1.87   0.13293  -18.9281
 0.20000    1.87     1.87   0.13239  -18.9283
 0.10000    1.87     1.87   0.13216  -18.9283
 -0.00000    1.87     1.87   0.13191  -18.9285
