 Field[T] Tsmpl[K] Tcntr[K] Signal   Mirror[MM]
 0.00000    1.85     1.85   0.56997  -18.5620
 0.05000    1.85     1.85   0.56757  -18.5616
 0.10000    1.85     1.85   0.56109  -18.5804
 0.15000    1.85     1.85   0.56220  -18.5833
 0.20000    1.85     1.85   0.56255  -18.5996
 0.25000    1.85     1.85   0.56364  -18.6090
 0.30000    1.85     1.85   0.56598  -18.6161
 0.35000    1.85     1.85   0.56808  -18.6255
 0.40000    1.85     1.85   0.57228  -18.6330
 0.45000    1.85     1.85   0.57385  -18.6382
 0.50000    1.85     1.85   0.57696  -18.6433
 0.55000    1.85     1.85   0.58000  -18.6497
 0.60000    1.85     1.85   0.58272  -18.6536
 0.65000    1.85     1.85   0.58738  -18.6592
 0.70000    1.85     1.85   0.59125  -18.6608
 0.75000    1.85     1.85   0.59650  -18.6642
 0.80000    1.85     1.85   0.60062  -18.6631
 0.85000    1.85     1.85   0.60496  -18.6619
 0.90000    1.85     1.85   0.60572  -18.6597
 0.95000    1.85     1.85   0.60838  -18.6582
 1.00000    1.85     1.85   0.61081  -18.6579
 1.05000    1.85     1.85   0.61344  -18.6566
 1.10000    1.85     1.85   0.61502  -18.6547
 1.15000    1.85     1.85   0.61785  -18.6545
 1.20000    1.85     1.85   0.61849  -18.6530
 1.25000    1.85     1.85   0.61942  -18.6520
 1.30000    1.85     1.85   0.61990  -18.6493
 1.35000    1.85     1.85   0.62174  -18.6488
 1.40000    1.85     1.85   0.62188  -18.6469
 1.45000    1.85     1.85   0.62263  -18.6460
 1.50000    1.85     1.85   0.62348  -18.6449
 1.55000    1.85     1.85   0.62474  -18.6445
 1.60000    1.85     1.85   0.62560  -18.6438
 1.65000    1.85     1.85   0.62606  -18.6426
 1.70000    1.85     1.85   0.62542  -18.6412
 1.75000    1.85     1.85   0.62625  -18.6412
 1.80000    1.85     1.85   0.62727  -18.6403
 1.85000    1.85     1.85   0.62848  -18.6403
 1.90000    1.85     1.85   0.62817  -18.6392
 1.95000    1.85     1.85   0.62828  -18.6389
 2.00000    1.85     1.85   0.62986  -18.6388
 2.05000    1.85     1.85   0.63013  -18.6378
 2.10000    1.85     1.85   0.62997  -18.6383
 2.15000    1.85     1.85   0.62951  -18.6364
 2.20000    1.85     1.85   0.62976  -18.6368
 2.25000    1.85     1.85   0.63071  -18.6360
 2.30000    1.85     1.85   0.63092  -18.6357
 2.35000    1.85     1.85   0.63068  -18.6349
 2.40000    1.85     1.85   0.63137  -18.6354
 2.45000    1.85     1.85   0.63120  -18.6358
 2.50000    1.85     1.85   0.63033  -18.6344
 2.55000    1.85     1.85   0.63114  -18.6345
 2.60000    1.85     1.85   0.63100  -18.6345
 2.65000    1.85     1.85   0.63138  -18.6342
 2.70000    1.85     1.85   0.63049  -18.6331
 2.75000    1.85     1.85   0.63010  -18.6333
 2.80000    1.85     1.85   0.63206  -18.6336
 2.85000    1.85     1.85   0.62997  -18.6325
 2.90000    1.85     1.85   0.63164  -18.6338
 2.95000    1.85     1.85   0.63182  -18.6332
 3.00000    1.85     1.85   0.63127  -18.6307
 3.05000    1.85     1.85   0.63074  -18.6313
 3.10000    1.85     1.85   0.63109  -18.6321
 3.15000    1.85     1.85   0.63022  -18.6315
 3.20000    1.85     1.85   0.63219  -18.6323
 3.25000    1.85     1.85   0.63208  -18.6315
 3.30000    1.85     1.85   0.63198  -18.6304
 3.35000    1.85     1.85   0.63243  -18.6309
 3.40000    1.85     1.85   0.63191  -18.6298
 3.45000    1.85     1.85   0.63208  -18.6305
 3.50000    1.85     1.85   0.63220  -18.6308
 3.55000    1.85     1.85   0.63151  -18.6301
 3.60000    1.85     1.85   0.63125  -18.6299
 3.65000    1.85     1.85   0.63055  -18.6294
 3.70000    1.85     1.85   0.63194  -18.6295
 3.75000    1.85     1.85   0.63230  -18.6304
 3.80000    1.85     1.85   0.63236  -18.6297
 3.85000    1.85     1.85   0.63210  -18.6305
 3.90000    1.85     1.85   0.63222  -18.6305
 3.95000    1.85     1.85   0.63229  -18.6299
 4.00000    1.85     1.85   0.63216  -18.6298
 4.05000    1.85     1.85   0.63224  -18.6297
 4.10000    1.85     1.85   0.63279  -18.6300
 4.15000    1.85     1.85   0.63269  -18.6306
 4.20000    1.85     1.85   0.63234  -18.6300
 4.25000    1.85     1.85   0.63235  -18.6300
 4.30000    1.85     1.85   0.63233  -18.6301
 4.35000    1.85     1.85   0.63272  -18.6297
 4.40000    1.85     1.85   0.63208  -18.6294
 4.45000    1.85     1.85   0.63103  -18.6286
 4.50000    1.85     1.85   0.63187  -18.6291
 4.55000    1.85     1.85   0.63159  -18.6292
 4.60000    1.85     1.85   0.63244  -18.6300
 4.65000    1.85     1.85   0.63222  -18.6298
 4.70000    1.85     1.85   0.63241  -18.6295
 4.75000    1.85     1.85   0.63217  -18.6292
 4.80000    1.85     1.85   0.63244  -18.6292
 4.85000    1.85     1.85   0.63229  -18.6287
 4.90000    1.85     1.85   0.63201  -18.6289
 4.95000    1.85     1.85   0.63250  -18.6284
 5.00000    1.85     1.85   0.63256  -18.6292
 5.05000    1.85     1.85   0.63243  -18.6290
 5.10000    1.85     1.85   0.63233  -18.6286
 5.15000    1.85     1.85   0.63188  -18.6273
 5.20000    1.85     1.85   0.63217  -18.6282
 5.25000    1.85     1.85   0.63284  -18.6278
 5.30000    1.85     1.85   0.63186  -18.6273
 5.35000    1.85     1.85   0.63178  -18.6277
 5.40000    1.85     1.85   0.63231  -18.6279
 5.45000    1.85     1.85   0.63290  -18.6277
 5.50000    1.85     1.85   0.63317  -18.6277
 5.55000    1.85     1.85   0.63258  -18.6276
 5.60000    1.85     1.85   0.63267  -18.6276
 5.65000    1.85     1.85   0.63274  -18.6278
 5.70000    1.85     1.85   0.63308  -18.6267
 5.75000    1.85     1.85   0.63366  -18.6263
 5.80000    1.85     1.85   0.63351  -18.6261
 5.85000    1.85     1.85   0.63325  -18.6269
 5.90000    1.85     1.85   0.63276  -18.6266
 5.95000    1.85     1.85   0.63244  -18.6246
 6.00000    1.85     1.85   0.63301  -18.6247
 6.05000    1.85     1.85   0.63257  -18.6250
 6.10000    1.85     1.85   0.63254  -18.6244
 6.15000    1.85     1.85   0.63352  -18.6256
 6.20000    1.85     1.85   0.63384  -18.6252
 6.25000    1.85     1.85   0.63388  -18.6246
 6.30000    1.85     1.85   0.63444  -18.6251
 6.35000    1.85     1.85   0.63310  -18.6246
 6.40000    1.85     1.85   0.63320  -18.6242
 6.45000    1.85     1.85   0.63353  -18.6244
 6.50000    1.85     1.85   0.63427  -18.6241
 6.55000    1.85     1.85   0.63489  -18.6243
 6.60000    1.85     1.85   0.63494  -18.6249
 6.65000    1.85     1.85   0.63429  -18.6238
 6.70000    1.85     1.85   0.63378  -18.6243
 6.75000    1.85     1.85   0.63463  -18.6244
 6.80000    1.85     1.85   0.63388  -18.6239
 6.85000    1.85     1.85   0.63490  -18.6239
 6.90000    1.85     1.85   0.63483  -18.6243
 6.95000    1.85     1.85   0.63403  -18.6237
 7.00000    1.85     1.85   0.63375  -18.6227
 7.00000    1.85     1.85   0.63395  -18.6229
 6.95000    1.85     1.85   0.63353  -18.6218
 6.90000    1.85     1.85   0.63409  -18.6231
 6.85000    1.85     1.85   0.63385  -18.6230
 6.80000    1.85     1.85   0.63339  -18.6233
 6.75000    1.85     1.85   0.63250  -18.6231
 6.70000    1.85     1.85   0.63367  -18.6232
 6.65000    1.85     1.85   0.63269  -18.6232
 6.60000    1.85     1.85   0.63344  -18.6231
 6.55000    1.85     1.85   0.63469  -18.6246
 6.50000    1.85     1.85   0.63388  -18.6244
 6.45000    1.85     1.85   0.63343  -18.6243
 6.40000    1.85     1.85   0.63386  -18.6244
 6.35000    1.85     1.85   0.63481  -18.6250
 6.30000    1.85     1.85   0.63363  -18.6237
 6.25000    1.85     1.85   0.63381  -18.6244
 6.20000    1.85     1.85   0.63412  -18.6251
 6.15000    1.85     1.85   0.63398  -18.6256
 6.10000    1.85     1.85   0.63387  -18.6259
 6.05000    1.85     1.85   0.63317  -18.6247
 6.00000    1.85     1.85   0.63355  -18.6254
 5.95000    1.85     1.85   0.63302  -18.6260
 5.90000    1.85     1.85   0.63319  -18.6264
 5.85000    1.85     1.85   0.63421  -18.6272
 5.80000    1.85     1.85   0.63374  -18.6270
 5.75000    1.85     1.85   0.63398  -18.6272
 5.70000    1.85     1.85   0.63234  -18.6250
 5.65000    1.85     1.85   0.63292  -18.6244
 5.60000    1.85     1.85   0.63250  -18.6264
 5.55000    1.85     1.85   0.63348  -18.6280
 5.50000    1.85     1.85   0.63457  -18.6289
 5.45000    1.85     1.85   0.63412  -18.6293
 5.40000    1.85     1.85   0.63370  -18.6290
 5.35000    1.85     1.85   0.63430  -18.6304
 5.30000    1.85     1.85   0.63460  -18.6301
 5.25000    1.85     1.85   0.63433  -18.6305
 5.20000    1.85     1.85   0.63344  -18.6305
 5.15000    1.85     1.85   0.63467  -18.6311
 5.10000    1.85     1.85   0.63399  -18.6319
 5.05000    1.85     1.85   0.63401  -18.6310
 5.00000    1.85     1.85   0.63406  -18.6316
 4.95000    1.85     1.85   0.63326  -18.6316
 4.90000    1.85     1.85   0.63384  -18.6317
 4.85000    1.85     1.85   0.63341  -18.6323
 4.80000    1.85     1.85   0.63312  -18.6328
 4.75000    1.85     1.85   0.63406  -18.6334
 4.70000    1.85     1.85   0.63196  -18.6325
 4.65000    1.85     1.85   0.63332  -18.6330
 4.60000    1.85     1.85   0.63378  -18.6340
 4.55000    1.85     1.85   0.63350  -18.6340
 4.50000    1.85     1.85   0.63315  -18.6342
 4.45000    1.85     1.85   0.63283  -18.6345
 4.40000    1.85     1.85   0.63296  -18.6343
 4.35000    1.85     1.85   0.63288  -18.6348
 4.30000    1.85     1.85   0.63227  -18.6345
 4.25000    1.85     1.85   0.63174  -18.6343
 4.20000    1.85     1.85   0.63192  -18.6341
 4.15000    1.85     1.85   0.63196  -18.6349
 4.10000    1.85     1.85   0.63189  -18.6349
 4.05000    1.85     1.85   0.63083  -18.6351
 4.00000    1.85     1.85   0.63176  -18.6351
 3.95000    1.85     1.85   0.63112  -18.6350
 3.90000    1.85     1.85   0.63151  -18.6356
 3.85000    1.85     1.85   0.63185  -18.6358
 3.80000    1.85     1.85   0.63121  -18.6360
 3.75000    1.85     1.85   0.63206  -18.6362
 3.70000    1.85     1.85   0.63172  -18.6358
 3.65000    1.85     1.85   0.63150  -18.6359
 3.60000    1.85     1.85   0.63172  -18.6361
 3.55000    1.85     1.85   0.63155  -18.6354
 3.50000    1.85     1.85   0.63130  -18.6357
 3.45000    1.85     1.85   0.63164  -18.6369
 3.40000    1.85     1.85   0.63194  -18.6370
 3.35000    1.85     1.85   0.63166  -18.6371
 3.30000    1.85     1.85   0.63116  -18.6378
 3.25000    1.85     1.85   0.63154  -18.6374
 3.20000    1.85     1.85   0.63161  -18.6373
 3.15000    1.85     1.85   0.63106  -18.6378
 3.10000    1.85     1.85   0.63144  -18.6387
 3.05000    1.85     1.85   0.63089  -18.6388
 3.00000    1.85     1.85   0.63184  -18.6400
 2.95000    1.85     1.85   0.63152  -18.6398
 2.90000    1.85     1.85   0.63172  -18.6403
 2.85000    1.85     1.85   0.63077  -18.6406
 2.80000    1.85     1.85   0.63061  -18.6407
 2.75000    1.85     1.85   0.62973  -18.6398
 2.70000    1.85     1.85   0.63085  -18.6409
 2.65000    1.85     1.85   0.63069  -18.6415
 2.60000    1.85     1.85   0.63061  -18.6417
 2.55000    1.85     1.85   0.63092  -18.6421
 2.50000    1.85     1.85   0.63074  -18.6430
 2.45000    1.85     1.85   0.63090  -18.6433
 2.40000    1.85     1.85   0.63070  -18.6439
 2.35000    1.85     1.85   0.63022  -18.6441
 2.30000    1.85     1.85   0.63024  -18.6450
 2.25000    1.85     1.85   0.63006  -18.6455
 2.20000    1.85     1.85   0.62939  -18.6453
 2.15000    1.85     1.85   0.62975  -18.6458
 2.10000    1.85     1.85   0.62973  -18.6467
 2.05000    1.85     1.85   0.62868  -18.6461
 2.00000    1.85     1.85   0.62923  -18.6468
 1.95000    1.85     1.85   0.62896  -18.6475
 1.90000    1.85     1.85   0.62760  -18.6478
 1.85000    1.85     1.85   0.62813  -18.6481
 1.80000    1.85     1.85   0.62786  -18.6493
 1.75000    1.85     1.85   0.62781  -18.6496
 1.70000    1.85     1.85   0.62756  -18.6499
 1.65000    1.85     1.85   0.62602  -18.6496
 1.60000    1.85     1.85   0.62580  -18.6505
 1.55000    1.85     1.85   0.62462  -18.6509
 1.50000    1.85     1.85   0.62589  -18.6527
 1.45000    1.85     1.85   0.62482  -18.6528
 1.40000    1.85     1.85   0.62431  -18.6544
 1.35000    1.85     1.85   0.62331  -18.6554
 1.30000    1.85     1.85   0.62278  -18.6566
 1.25000    1.85     1.85   0.62146  -18.6575
 1.20000    1.85     1.85   0.62032  -18.6583
 1.15000    1.85     1.85   0.61845  -18.6596
 1.10000    1.85     1.85   0.61693  -18.6620
 1.05000    1.85     1.85   0.61528  -18.6616
 1.00000    1.85     1.85   0.61314  -18.6623
 0.95000    1.85     1.85   0.61097  -18.6633
 0.90000    1.85     1.85   0.60704  -18.6619
 0.85000    1.85     1.85   0.60494  -18.6640
 0.80000    1.85     1.85   0.60206  -18.6657
 0.75000    1.85     1.85   0.59785  -18.6665
 0.70000    1.85     1.85   0.59466  -18.6656
 0.65000    1.85     1.85   0.58922  -18.6612
 0.60000    1.85     1.85   0.58629  -18.6585
 0.55000    1.85     1.85   0.58188  -18.6526
 0.50000    1.85     1.85   0.57840  -18.6468
 0.45000    1.85     1.85   0.57667  -18.6422
 0.40000    1.85     1.85   0.57391  -18.6363
 0.35000    1.85     1.85   0.57126  -18.6284
 0.30000    1.85     1.85   0.56825  -18.6203
 0.25000    1.85     1.85   0.56655  -18.6136
 0.20000    1.85     1.85   0.56689  -18.6023
 0.15000    1.85     1.85   0.56263  -18.5901
 0.10000    1.85     1.85   0.56202  -18.5847
 0.05000    1.85     1.85   0.56393  -18.5667
 -0.00000    1.85     1.85   0.56834  -18.5657
