 Field[T] Tsmpl[K] Tcntr[K] Signal   Mirror[MM]
 0.00000    1.85     1.85   0.49632  -18.3230
 0.05000    1.85     1.85   0.49300  -18.3237
 0.10000    1.85     1.85   0.48610  -18.3260
 0.15000    1.85     1.85   0.47228  -18.3303
 0.20000    1.85     1.85   0.47976  -18.3467
 0.25000    1.85     1.85   0.49372  -18.3561
 0.30000    1.85     1.85   0.50668  -18.3617
 0.35000    1.85     1.85   0.52166  -18.3680
 0.40000    1.85     1.85   0.53520  -18.3709
 0.45000    1.85     1.85   0.54902  -18.3725
 0.50000    1.85     1.85   0.56774  -18.3749
 0.55000    1.85     1.85   0.57926  -18.3764
 0.60000    1.85     1.85   0.59640  -18.3766
 0.65000    1.85     1.85   0.60964  -18.3759
 0.70000    1.85     1.85   0.62492  -18.3756
 0.75000    1.85     1.85   0.63916  -18.3738
 0.80000    1.85     1.85   0.65270  -18.3714
 0.85000    1.85     1.85   0.66596  -18.3681
 0.90000    1.85     1.85   0.67676  -18.3634
 0.95000    1.85     1.85   0.68308  -18.3591
 1.00000    1.85     1.85   0.68842  -18.3544
 1.05000    1.85     1.85   0.68986  -18.3475
 1.10000    1.85     1.85   0.69950  -18.3476
 1.15000    1.85     1.85   0.70196  -18.3442
 1.20000    1.85     1.85   0.70152  -18.3412
 1.25000    1.85     1.85   0.70022  -18.3381
 1.30000    1.85     1.85   0.70166  -18.3359
 1.35000    1.85     1.85   0.70252  -18.3339
 1.40000    1.85     1.85   0.70426  -18.3324
 1.45000    1.85     1.85   0.70396  -18.3307
 1.50000    1.85     1.85   0.69964  -18.3278
 1.55000    1.85     1.85   0.70310  -18.3259
 1.60000    1.85     1.85   0.70094  -18.3246
 1.65000    1.85     1.85   0.70138  -18.3237
 1.70000    1.85     1.85   0.70426  -18.3227
 1.75000    1.85     1.85   0.70268  -18.3206
 1.80000    1.85     1.85   0.70052  -18.3183
 1.85000    1.85     1.85   0.69908  -18.3158
 1.90000    1.85     1.85   0.70180  -18.3166
 1.95000    1.85     1.85   0.70324  -18.3172
 2.00000    1.85     1.85   0.70036  -18.3148
 2.05000    1.85     1.85   0.70296  -18.3144
 2.10000    1.85     1.85   0.70066  -18.3131
 2.15000    1.85     1.85   0.70152  -18.3127
 2.20000    1.85     1.85   0.70052  -18.3118
 2.25000    1.85     1.85   0.70094  -18.3117
 2.30000    1.85     1.85   0.69764  -18.3098
 2.35000    1.85     1.85   0.69706  -18.3083
 2.40000    1.85     1.85   0.69388  -18.3078
 2.45000    1.85     1.85   0.69692  -18.3083
 2.50000    1.85     1.85   0.69792  -18.3082
 2.55000    1.85     1.85   0.69648  -18.3067
 2.60000    1.85     1.85   0.69764  -18.3058
 2.65000    1.85     1.85   0.69850  -18.3055
 2.70000    1.85     1.85   0.69748  -18.3052
 2.75000    1.85     1.85   0.69274  -18.3020
 2.80000    1.85     1.85   0.69360  -18.3006
 2.85000    1.85     1.85   0.69576  -18.3033
 2.90000    1.85     1.85   0.69288  -18.3012
 2.95000    1.85     1.85   0.69476  -18.3019
 3.00000    1.85     1.85   0.69720  -18.3018
 3.05000    1.85     1.85   0.69346  -18.3014
 3.10000    1.85     1.85   0.69634  -18.3014
 3.15000    1.85     1.85   0.69432  -18.3011
 3.20000    1.85     1.85   0.69806  -18.3007
 3.25000    1.85     1.85   0.69518  -18.3005
 3.30000    1.85     1.85   0.69288  -18.3001
 3.35000    1.85     1.85   0.69620  -18.3002
 3.40000    1.85     1.85   0.69404  -18.3001
 3.45000    1.85     1.85   0.69230  -18.2992
 3.50000    1.85     1.85   0.69000  -18.2983
 3.55000    1.85     1.85   0.69144  -18.2972
 3.60000    1.85     1.85   0.68784  -18.2932
 3.65000    1.85     1.85   0.69144  -18.2955
 3.70000    1.85     1.85   0.69332  -18.2969
 3.75000    1.85     1.85   0.69216  -18.2963
 3.80000    1.85     1.85   0.69332  -18.2965
 3.85000    1.85     1.85   0.69548  -18.2965
 3.90000    1.85     1.85   0.69548  -18.2969
 3.95000    1.85     1.85   0.69476  -18.2963
 4.00000    1.85     1.85   0.69216  -18.2956
 4.05000    1.85     1.85   0.69388  -18.2964
 4.10000    1.85     1.85   0.69476  -18.2961
 4.15000    1.85     1.85   0.69360  -18.2958
 4.20000    1.85     1.85   0.69274  -18.2952
 4.25000    1.85     1.85   0.69346  -18.2944
 4.30000    1.85     1.85   0.69302  -18.2941
 4.35000    1.85     1.85   0.69058  -18.2940
 4.40000    1.85     1.85   0.69188  -18.2941
 4.45000    1.85     1.85   0.69058  -18.2933
 4.50000    1.85     1.85   0.69346  -18.2941
 4.55000    1.85     1.85   0.69014  -18.2936
 4.60000    1.85     1.85   0.69274  -18.2935
 4.65000    1.85     1.85   0.68842  -18.2925
 4.70000    1.85     1.85   0.69028  -18.2920
 4.75000    1.85     1.85   0.69172  -18.2919
 4.80000    1.85     1.85   0.68972  -18.2921
 4.85000    1.85     1.85   0.68756  -18.2913
 4.90000    1.85     1.85   0.68828  -18.2914
 4.95000    1.85     1.85   0.68942  -18.2911
 5.00000    1.85     1.85   0.69202  -18.2917
 5.05000    1.85     1.85   0.68942  -18.2912
 5.10000    1.85     1.85   0.68640  -18.2907
 5.15000    1.85     1.85   0.68812  -18.2910
 5.20000    1.85     1.85   0.68640  -18.2909
 5.25000    1.85     1.85   0.68914  -18.2904
 5.30000    1.85     1.85   0.68900  -18.2908
 5.35000    1.85     1.85   0.68900  -18.2904
 5.40000    1.85     1.85   0.68668  -18.2899
 5.45000    1.85     1.85   0.68870  -18.2896
 5.50000    1.85     1.85   0.68986  -18.2901
 5.55000    1.85     1.85   0.68612  -18.2892
 5.60000    1.85     1.85   0.68540  -18.2887
 5.65000    1.85     1.85   0.68914  -18.2895
 5.70000    1.85     1.85   0.68612  -18.2886
 5.75000    1.85     1.85   0.68668  -18.2883
 5.80000    1.85     1.85   0.68294  -18.2886
 5.85000    1.85     1.85   0.68554  -18.2885
 5.90000    1.85     1.85   0.68510  -18.2884
 5.95000    1.85     1.85   0.68626  -18.2876
 6.00000    1.85     1.85   0.68756  -18.2880
 6.05000    1.85     1.85   0.68640  -18.2872
 6.10000    1.85     1.85   0.68740  -18.2875
 6.15000    1.85     1.85   0.68294  -18.2877
 6.20000    1.85     1.85   0.68452  -18.2871
 6.25000    1.85     1.85   0.68324  -18.2870
 6.30000    1.85     1.85   0.68222  -18.2865
 6.35000    1.85     1.85   0.68568  -18.2870
 6.40000    1.85     1.85   0.68078  -18.2859
 6.45000    1.85     1.85   0.68410  -18.2858
 6.50000    1.85     1.85   0.67862  -18.2853
 6.55000    1.85     1.85   0.68194  -18.2852
 6.60000    1.85     1.85   0.68280  -18.2859
 6.65000    1.85     1.85   0.68164  -18.2857
 6.70000    1.85     1.85   0.68236  -18.2856
 6.75000    1.85     1.85   0.68208  -18.2856
 6.80000    1.85     1.85   0.68164  -18.2849
 6.85000    1.85     1.85   0.68266  -18.2848
 6.90000    1.85     1.85   0.68294  -18.2851
 6.95000    1.85     1.85   0.68324  -18.2857
 7.00000    1.85     1.85   0.68208  -18.2860
 7.00000    1.85     1.85   0.68036  -18.2852
 6.95000    1.85     1.85   0.68410  -18.2852
 6.90000    1.85     1.85   0.68482  -18.2849
 6.85000    1.85     1.85   0.68352  -18.2848
 6.80000    1.85     1.85   0.68482  -18.2857
 6.75000    1.85     1.85   0.68396  -18.2856
 6.70000    1.85     1.85   0.68612  -18.2856
 6.65000    1.85     1.85   0.68496  -18.2855
 6.60000    1.85     1.85   0.68020  -18.2849
 6.55000    1.85     1.85   0.68554  -18.2859
 6.50000    1.85     1.85   0.68654  -18.2862
 6.45000    1.85     1.85   0.68438  -18.2863
 6.40000    1.85     1.85   0.68568  -18.2867
 6.35000    1.85     1.85   0.68438  -18.2861
 6.30000    1.85     1.85   0.68698  -18.2865
 6.25000    1.85     1.85   0.68596  -18.2867
 6.20000    1.85     1.85   0.68626  -18.2863
 6.15000    1.85     1.85   0.68726  -18.2875
 6.10000    1.85     1.85   0.68626  -18.2873
 6.05000    1.85     1.85   0.68784  -18.2874
 6.00000    1.85     1.85   0.69028  -18.2876
 5.95000    1.85     1.85   0.68828  -18.2874
 5.90000    1.85     1.85   0.69058  -18.2870
 5.85000    1.85     1.85   0.68884  -18.2881
 5.80000    1.85     1.85   0.68972  -18.2879
 5.75000    1.85     1.85   0.69144  -18.2881
 5.70000    1.85     1.85   0.69116  -18.2885
 5.65000    1.85     1.85   0.69230  -18.2886
 5.60000    1.85     1.85   0.69244  -18.2881
 5.55000    1.85     1.85   0.69188  -18.2888
 5.50000    1.85     1.85   0.69332  -18.2894
 5.45000    1.85     1.85   0.69274  -18.2898
 5.40000    1.85     1.85   0.69604  -18.2899
 5.35000    1.85     1.85   0.69446  -18.2903
 5.30000    1.85     1.85   0.69360  -18.2906
 5.25000    1.85     1.85   0.69518  -18.2899
 5.20000    1.85     1.85   0.69490  -18.2903
 5.15000    1.85     1.85   0.69418  -18.2902
 5.10000    1.85     1.85   0.69820  -18.2913
 5.05000    1.85     1.85   0.69634  -18.2910
 5.00000    1.85     1.85   0.69734  -18.2908
 4.95000    1.85     1.85   0.69706  -18.2912
 4.90000    1.85     1.85   0.69792  -18.2915
 4.85000    1.85     1.85   0.69504  -18.2890
 4.80000    1.85     1.85   0.69662  -18.2909
 4.75000    1.85     1.85   0.68798  -18.2872
 4.70000    1.85     1.85   0.69692  -18.2911
 4.65000    1.85     1.85   0.69360  -18.2904
 4.60000    1.85     1.85   0.69548  -18.2912
 4.55000    1.85     1.85   0.69692  -18.2922
 4.50000    1.85     1.85   0.70196  -18.2935
 4.45000    1.85     1.85   0.70238  -18.2942
 4.40000    1.85     1.85   0.70368  -18.2951
 4.35000    1.85     1.85   0.70440  -18.2952
 4.30000    1.85     1.85   0.70324  -18.2951
 4.25000    1.85     1.85   0.70180  -18.2952
 4.20000    1.85     1.85   0.70512  -18.2952
 4.15000    1.85     1.85   0.70628  -18.2953
 4.10000    1.85     1.85   0.70426  -18.2957
 4.05000    1.85     1.85   0.70368  -18.2960
 4.00000    1.85     1.85   0.70468  -18.2963
 3.95000    1.85     1.85   0.70468  -18.2965
 3.90000    1.85     1.85   0.70556  -18.2966
 3.85000    1.85     1.85   0.70642  -18.2970
 3.80000    1.85     1.85   0.70584  -18.2970
 3.75000    1.85     1.85   0.70598  -18.2978
 3.70000    1.85     1.85   0.70828  -18.2983
 3.65000    1.85     1.85   0.70916  -18.2981
 3.60000    1.85     1.85   0.70756  -18.2985
 3.55000    1.85     1.85   0.71030  -18.2987
 3.50000    1.85     1.85   0.70814  -18.2991
 3.45000    1.85     1.85   0.70814  -18.2990
 3.40000    1.85     1.85   0.70814  -18.3001
 3.35000    1.85     1.85   0.71044  -18.3002
 3.30000    1.85     1.85   0.71102  -18.3008
 3.25000    1.85     1.85   0.70916  -18.3012
 3.20000    1.85     1.85   0.70814  -18.3009
 3.15000    1.85     1.85   0.71160  -18.3017
 3.10000    1.85     1.85   0.70988  -18.3012
 3.05000    1.85     1.85   0.71116  -18.3023
 3.00000    1.85     1.85   0.71204  -18.3025
 2.95000    1.85     1.85   0.70988  -18.3035
 2.90000    1.85     1.85   0.71188  -18.3035
 2.85000    1.85     1.85   0.70828  -18.3040
 2.80000    1.85     1.85   0.71304  -18.3049
 2.75000    1.85     1.85   0.71318  -18.3057
 2.70000    1.85     1.85   0.71678  -18.3060
 2.65000    1.85     1.85   0.71304  -18.3067
 2.60000    1.85     1.85   0.71276  -18.3074
 2.55000    1.85     1.85   0.71434  -18.3077
 2.50000    1.85     1.85   0.71390  -18.3090
 2.45000    1.85     1.85   0.71564  -18.3081
 2.40000    1.85     1.85   0.71462  -18.3089
 2.35000    1.85     1.85   0.71564  -18.3102
 2.30000    1.85     1.85   0.71620  -18.3109
 2.25000    1.85     1.85   0.71620  -18.3117
 2.20000    1.85     1.85   0.71708  -18.3116
 2.15000    1.85     1.85   0.71692  -18.3125
 2.10000    1.85     1.85   0.71722  -18.3137
 2.05000    1.85     1.85   0.71708  -18.3143
 2.00000    1.85     1.85   0.71822  -18.3152
 1.95000    1.85     1.85   0.71592  -18.3154
 1.90000    1.85     1.85   0.71924  -18.3169
 1.85000    1.85     1.85   0.71808  -18.3180
 1.80000    1.85     1.85   0.72038  -18.3193
 1.75000    1.85     1.85   0.71894  -18.3201
 1.70000    1.85     1.85   0.72052  -18.3216
 1.65000    1.85     1.85   0.72052  -18.3236
 1.60000    1.85     1.85   0.71952  -18.3253
 1.55000    1.85     1.85   0.71966  -18.3265
 1.50000    1.85     1.85   0.71650  -18.3278
 1.45000    1.85     1.85   0.71938  -18.3292
 1.40000    1.85     1.85   0.72038  -18.3313
 1.35000    1.85     1.85   0.71894  -18.3337
 1.30000    1.85     1.85   0.71808  -18.3353
 1.25000    1.85     1.85   0.71592  -18.3383
 1.20000    1.85     1.85   0.71750  -18.3411
 1.15000    1.85     1.85   0.71434  -18.3437
 1.10000    1.85     1.85   0.71534  -18.3469
 1.05000    1.85     1.85   0.70900  -18.3503
 1.00000    1.85     1.85   0.70814  -18.3545
 0.95000    1.85     1.85   0.69964  -18.3583
 0.90000    1.85     1.85   0.69116  -18.3626
 0.85000    1.85     1.85   0.68208  -18.3667
 0.80000    1.85     1.85   0.67214  -18.3704
 0.75000    1.85     1.85   0.65400  -18.3732
 0.70000    1.85     1.85   0.64248  -18.3748
 0.65000    1.85     1.85   0.62476  -18.3754
 0.60000    1.85     1.85   0.60922  -18.3756
 0.55000    1.85     1.85   0.59496  -18.3756
 0.50000    1.85     1.85   0.57956  -18.3732
 0.45000    1.85     1.85   0.56314  -18.3719
 0.40000    1.85     1.85   0.54960  -18.3690
 0.35000    1.85     1.85   0.53506  -18.3657
 0.30000    1.85     1.85   0.51980  -18.3606
 0.25000    1.85     1.85   0.50482  -18.3554
 0.20000    1.85     1.85   0.49244  -18.3472
 0.15000    1.85     1.85   0.48178  -18.3305
 0.10000    1.85     1.85   0.49834  -18.3239
 0.05000    1.85     1.85   0.50324  -18.3213
 -0.00000    1.85     1.85   0.50612  -18.3205
 -0.05000    1.85     1.85   0.50194  -18.3205
 -0.10000    1.85     1.85   0.49732  -18.3229
 -0.15000    1.85     1.85   0.48596  -18.3270
 -0.20000    1.85     1.85   0.48826  -18.3448
 -0.25000    1.85     1.85   0.49762  -18.3519
 -0.30000    1.85     1.85   0.51346  -18.3582
 -0.35000    1.85     1.85   0.52786  -18.3640
 -0.40000    1.85     1.85   0.54340  -18.3675
 -0.45000    1.85     1.85   0.55838  -18.3701
 -0.50000    1.85     1.85   0.57768  -18.3730
 -0.55000    1.85     1.85   0.59020  -18.3732
 -0.60000    1.85     1.85   0.60216  -18.3735
 -0.65000    1.85     1.85   0.61844  -18.3734
 -0.70000    1.85     1.85   0.63470  -18.3733
 -0.75000    1.85     1.85   0.64882  -18.3716
 -0.80000    1.85     1.85   0.66020  -18.3677
 -0.85000    1.85     1.85   0.67632  -18.3648
 -0.90000    1.85     1.85   0.68524  -18.3604
 -0.95000    1.85     1.85   0.68986  -18.3559
 -1.00000    1.85     1.85   0.69864  -18.3517
 -1.05000    1.85     1.85   0.70540  -18.3484
 -1.10000    1.85     1.85   0.71002  -18.3445
 -1.15000    1.85     1.85   0.71188  -18.3413
 -1.20000    1.85     1.85   0.71074  -18.3377
 -1.25000    1.85     1.85   0.71232  -18.3351
 -1.30000    1.85     1.85   0.71088  -18.3321
 -1.35000    1.85     1.85   0.71492  -18.3304
 -1.40000    1.85     1.85   0.71492  -18.3284
 -1.45000    1.85     1.85   0.71476  -18.3266
 -1.50000    1.85     1.85   0.71362  -18.3244
 -1.55000    1.85     1.85   0.71390  -18.3224
 -1.60000    1.85     1.85   0.71794  -18.3217
 -1.65000    1.85     1.85   0.71534  -18.3199
 -1.70000    1.85     1.85   0.71750  -18.3188
 -1.75000    1.85     1.85   0.71548  -18.3176
 -1.80000    1.85     1.85   0.71578  -18.3160
 -1.85000    1.85     1.85   0.71636  -18.3157
 -1.90000    1.85     1.85   0.71376  -18.3132
 -1.95000    1.85     1.85   0.71188  -18.3097
 -2.00000    1.85     1.85   0.71592  -18.3104
 -2.05000    1.85     1.85   0.71290  -18.3106
 -2.10000    1.85     1.85   0.71592  -18.3096
 -2.15000    1.85     1.85   0.71692  -18.3094
 -2.20000    1.85     1.85   0.71650  -18.3090
 -2.25000    1.85     1.85   0.71736  -18.3077
 -2.30000    1.85     1.85   0.71564  -18.3068
 -2.35000    1.85     1.85   0.71606  -18.3063
 -2.40000    1.85     1.85   0.71434  -18.3053
 -2.45000    1.85     1.85   0.71794  -18.3054
 -2.50000    1.85     1.85   0.71736  -18.3044
 -2.55000    1.85     1.85   0.71664  -18.3038
 -2.60000    1.85     1.85   0.71880  -18.3034
 -2.65000    1.85     1.85   0.71794  -18.3028
 -2.70000    1.85     1.85   0.71650  -18.3017
 -2.75000    1.85     1.85   0.71636  -18.3017
 -2.80000    1.85     1.85   0.71808  -18.3012
 -2.85000    1.85     1.85   0.71492  -18.3000
 -2.90000    1.85     1.85   0.71520  -18.2996
 -2.95000    1.85     1.85   0.71764  -18.2996
 -3.00000    1.85     1.85   0.71664  -18.2997
 -3.05000    1.85     1.85   0.71764  -18.2988
 -3.10000    1.85     1.85   0.71420  -18.2982
 -3.15000    1.85     1.85   0.71808  -18.2986
 -3.20000    1.85     1.85   0.71938  -18.2979
 -3.25000    1.85     1.85   0.71692  -18.2975
 -3.30000    1.85     1.85   0.71606  -18.2973
 -3.35000    1.85     1.85   0.71664  -18.2965
 -3.40000    1.85     1.85   0.71736  -18.2968
 -3.45000    1.85     1.85   0.71966  -18.2962
 -3.50000    1.85     1.85   0.71866  -18.2956
 -3.55000    1.85     1.85   0.71952  -18.2959
 -3.60000    1.85     1.85   0.71808  -18.2952
 -3.65000    1.85     1.85   0.71966  -18.2945
 -3.70000    1.85     1.85   0.71780  -18.2947
 -3.75000    1.85     1.85   0.71924  -18.2940
 -3.80000    1.85     1.85   0.71836  -18.2934
 -3.85000    1.85     1.85   0.71996  -18.2943
 -3.90000    1.85     1.85   0.72038  -18.2936
 -3.95000    1.85     1.85   0.72052  -18.2936
 -4.00000    1.85     1.85   0.71880  -18.2925
 -4.05000    1.85     1.85   0.71952  -18.2922
 -4.10000    1.85     1.85   0.72024  -18.2913
 -4.15000    1.85     1.85   0.72024  -18.2921
 -4.20000    1.85     1.85   0.71750  -18.2903
 -4.25000    1.85     1.85   0.71894  -18.2915
 -4.30000    1.85     1.85   0.72340  -18.2919
 -4.35000    1.85     1.85   0.72010  -18.2903
 -4.40000    1.85     1.85   0.72298  -18.2904
 -4.45000    1.85     1.85   0.72254  -18.2904
 -4.50000    1.85     1.85   0.72052  -18.2908
 -4.55000    1.85     1.85   0.72326  -18.2903
 -4.60000    1.85     1.85   0.72628  -18.2898
 -4.65000    1.85     1.85   0.72326  -18.2909
 -4.70000    1.85     1.85   0.72860  -18.2911
 -4.75000    1.85     1.85   0.72528  -18.2911
 -4.80000    1.85     1.85   0.71966  -18.2875
 -4.85000    1.85     1.85   0.72038  -18.2873
 -4.90000    1.85     1.85   0.72500  -18.2891
 -4.95000    1.85     1.85   0.72356  -18.2884
 -5.00000    1.85     1.85   0.72470  -18.2893
 -5.05000    1.85     1.85   0.72672  -18.2897
 -5.10000    1.85     1.85   0.72686  -18.2895
 -5.15000    1.85     1.85   0.72844  -18.2889
 -5.20000    1.85     1.85   0.72644  -18.2888
 -5.25000    1.85     1.85   0.72628  -18.2878
 -5.30000    1.85     1.85   0.72556  -18.2869
 -5.35000    1.85     1.85   0.72700  -18.2874
 -5.40000    1.85     1.85   0.72628  -18.2875
 -5.45000    1.85     1.85   0.72716  -18.2882
 -5.50000    1.85     1.85   0.72658  -18.2887
 -5.55000    1.85     1.85   0.72614  -18.2857
 -5.60000    1.85     1.85   0.72716  -18.2867
 -5.65000    1.85     1.85   0.72960  -18.2878
 -5.70000    1.85     1.85   0.72686  -18.2848
 -5.75000    1.85     1.85   0.73204  -18.2876
 -5.80000    1.85     1.85   0.72874  -18.2861
 -5.85000    1.85     1.85   0.72484  -18.2857
 -5.90000    1.85     1.85   0.73190  -18.2856
 -5.95000    1.85     1.85   0.73076  -18.2851
 -6.00000    1.85     1.85   0.73204  -18.2866
 -6.05000    1.85     1.85   0.73436  -18.2849
 -6.10000    1.85     1.85   0.73436  -18.2852
 -6.15000    1.85     1.85   0.73406  -18.2853
 -6.20000    1.85     1.85   0.73392  -18.2854
 -6.25000    1.85     1.85   0.73536  -18.2843
 -6.30000    1.85     1.85   0.73348  -18.2843
 -6.35000    1.85     1.85   0.73492  -18.2848
 -6.40000    1.85     1.85   0.73320  -18.2841
 -6.45000    1.85     1.85   0.73320  -18.2846
 -6.50000    1.85     1.85   0.73378  -18.2845
 -6.55000    1.85     1.85   0.73652  -18.2833
 -6.60000    1.85     1.85   0.73220  -18.2844
 -6.65000    1.85     1.85   0.73450  -18.2841
 -6.70000    1.85     1.85   0.73752  -18.2839
 -6.75000    1.85     1.85   0.73478  -18.2839
 -6.80000    1.85     1.85   0.73436  -18.2832
 -6.85000    1.85     1.85   0.73666  -18.2829
 -6.90000    1.85     1.85   0.73420  -18.2825
 -6.95000    1.85     1.85   0.73766  -18.2829
 -7.00000    1.85     1.85   0.73766  -18.2827
 -7.00000    1.85     1.85   0.73694  -18.2819
 -6.95000    1.85     1.85   0.73564  -18.2826
 -6.90000    1.85     1.85   0.73608  -18.2833
 -6.85000    1.85     1.85   0.73708  -18.2833
 -6.80000    1.85     1.85   0.73680  -18.2833
 -6.75000    1.85     1.85   0.73536  -18.2835
 -6.70000    1.85     1.85   0.73608  -18.2836
 -6.65000    1.85     1.85   0.73364  -18.2845
 -6.60000    1.85     1.85   0.73652  -18.2845
 -6.55000    1.85     1.85   0.73406  -18.2843
 -6.50000    1.85     1.85   0.73220  -18.2833
 -6.45000    1.85     1.85   0.73276  -18.2838
 -6.40000    1.85     1.85   0.73334  -18.2841
 -6.35000    1.85     1.85   0.73276  -18.2848
 -6.30000    1.85     1.85   0.73220  -18.2839
 -6.25000    1.85     1.85   0.73406  -18.2844
 -6.20000    1.85     1.85   0.73608  -18.2845
 -6.15000    1.85     1.85   0.73406  -18.2853
 -6.10000    1.85     1.85   0.73348  -18.2857
 -6.05000    1.85     1.85   0.73378  -18.2863
 -6.00000    1.85     1.85   0.73248  -18.2859
 -5.95000    1.85     1.85   0.73378  -18.2857
 -5.90000    1.85     1.85   0.73104  -18.2849
 -5.85000    1.85     1.85   0.73580  -18.2857
 -5.80000    1.85     1.85   0.73550  -18.2864
 -5.75000    1.85     1.85   0.73622  -18.2871
 -5.70000    1.85     1.85   0.73580  -18.2872
 -5.65000    1.85     1.85   0.73724  -18.2870
 -5.60000    1.85     1.85   0.73622  -18.2875
 -5.55000    1.85     1.85   0.73694  -18.2880
 -5.50000    1.85     1.85   0.73608  -18.2886
 -5.45000    1.85     1.85   0.73738  -18.2885
 -5.40000    1.85     1.85   0.73608  -18.2887
 -5.35000    1.85     1.85   0.73766  -18.2882
 -5.30000    1.85     1.85   0.73508  -18.2892
 -5.25000    1.85     1.85   0.73420  -18.2888
 -5.20000    1.85     1.85   0.73652  -18.2893
 -5.15000    1.85     1.85   0.73234  -18.2888
 -5.10000    1.85     1.85   0.73636  -18.2891
 -5.05000    1.85     1.85   0.73824  -18.2899
 -5.00000    1.85     1.85   0.73694  -18.2901
 -4.95000    1.85     1.85   0.73564  -18.2897
 -4.90000    1.85     1.85   0.73796  -18.2913
 -4.85000    1.85     1.85   0.73882  -18.2913
 -4.80000    1.85     1.85   0.73954  -18.2918
 -4.75000    1.85     1.85   0.73536  -18.2910
 -4.70000    1.85     1.85   0.73694  -18.2914
 -4.65000    1.85     1.85   0.73636  -18.2914
 -4.60000    1.85     1.85   0.73954  -18.2926
 -4.55000    1.85     1.85   0.73724  -18.2915
 -4.50000    1.85     1.85   0.73738  -18.2927
 -4.45000    1.85     1.85   0.73636  -18.2932
 -4.40000    1.85     1.85   0.74054  -18.2933
 -4.35000    1.85     1.85   0.73752  -18.2932
 -4.30000    1.85     1.85   0.73550  -18.2917
 -4.25000    1.85     1.85   0.73536  -18.2937
 -4.20000    1.85     1.85   0.73708  -18.2936
 -4.15000    1.85     1.85   0.73724  -18.2932
 -4.10000    1.85     1.85   0.73392  -18.2941
 -4.05000    1.85     1.85   0.73708  -18.2959
 -4.00000    1.85     1.85   0.73564  -18.2958
 -3.95000    1.85     1.85   0.73882  -18.2961
 -3.90000    1.85     1.85   0.73694  -18.2959
 -3.85000    1.85     1.85   0.73738  -18.2971
 -3.80000    1.85     1.85   0.73868  -18.2972
 -3.75000    1.85     1.85   0.73694  -18.2974
 -3.70000    1.85     1.85   0.73708  -18.2974
 -3.65000    1.85     1.85   0.73882  -18.2984
 -3.60000    1.85     1.85   0.73594  -18.2978
 -3.55000    1.85     1.85   0.73636  -18.2985
 -3.50000    1.85     1.85   0.73766  -18.2991
 -3.45000    1.85     1.85   0.73652  -18.2995
 -3.40000    1.85     1.85   0.73766  -18.2999
 -3.35000    1.85     1.85   0.73680  -18.2995
 -3.30000    1.85     1.85   0.73464  -18.2993
 -3.25000    1.85     1.85   0.73608  -18.3001
 -3.20000    1.85     1.85   0.73392  -18.3009
 -3.15000    1.85     1.85   0.73522  -18.3001
 -3.10000    1.85     1.85   0.73162  -18.3015
 -3.05000    1.85     1.85   0.73508  -18.3016
 -3.00000    1.85     1.85   0.73464  -18.3014
 -2.95000    1.85     1.85   0.73666  -18.3011
 -2.90000    1.85     1.85   0.73234  -18.3025
 -2.85000    1.85     1.85   0.73420  -18.3035
 -2.80000    1.85     1.85   0.73536  -18.3037
 -2.75000    1.85     1.85   0.73564  -18.3044
 -2.70000    1.85     1.85   0.73508  -18.3049
 -2.65000    1.85     1.85   0.73464  -18.3054
 -2.60000    1.85     1.85   0.73882  -18.3057
 -2.55000    1.85     1.85   0.73580  -18.3071
 -2.50000    1.85     1.85   0.73334  -18.3067
 -2.45000    1.85     1.85   0.73708  -18.3086
 -2.40000    1.85     1.85   0.73348  -18.3090
 -2.35000    1.85     1.85   0.73478  -18.3087
 -2.30000    1.85     1.85   0.73508  -18.3098
 -2.25000    1.85     1.85   0.73436  -18.3104
 -2.20000    1.85     1.85   0.73796  -18.3107
 -2.15000    1.85     1.85   0.73622  -18.3122
 -2.10000    1.85     1.85   0.73924  -18.3129
 -2.05000    1.85     1.85   0.73492  -18.3140
 -2.00000    1.85     1.85   0.73680  -18.3148
 -1.95000    1.85     1.85   0.73450  -18.3156
 -1.90000    1.85     1.85   0.73248  -18.3159
 -1.85000    1.85     1.85   0.73334  -18.3169
 -1.80000    1.85     1.85   0.73550  -18.3191
 -1.75000    1.85     1.85   0.73420  -18.3197
 -1.70000    1.85     1.85   0.73508  -18.3217
 -1.65000    1.85     1.85   0.73162  -18.3220
 -1.60000    1.85     1.85   0.73090  -18.3233
 -1.55000    1.85     1.85   0.73204  -18.3244
 -1.50000    1.85     1.85   0.73118  -18.3261
 -1.45000    1.85     1.85   0.72932  -18.3279
 -1.40000    1.85     1.85   0.73004  -18.3302
 -1.35000    1.85     1.85   0.72658  -18.3318
 -1.30000    1.85     1.85   0.73004  -18.3348
 -1.25000    1.85     1.85   0.72772  -18.3368
 -1.20000    1.85     1.85   0.72514  -18.3391
 -1.15000    1.85     1.85   0.72514  -18.3418
 -1.10000    1.85     1.85   0.72038  -18.3457
 -1.05000    1.85     1.85   0.71620  -18.3489
 -1.00000    1.85     1.85   0.71174  -18.3528
 -0.95000    1.85     1.85   0.70872  -18.3570
 -0.90000    1.85     1.85   0.70080  -18.3616
 -0.85000    1.85     1.85   0.68684  -18.3657
 -0.80000    1.85     1.85   0.67618  -18.3700
 -0.75000    1.85     1.85   0.66250  -18.3723
 -0.70000    1.85     1.85   0.64608  -18.3743
 -0.65000    1.85     1.85   0.63110  -18.3741
 -0.60000    1.85     1.85   0.61628  -18.3747
 -0.55000    1.85     1.85   0.59884  -18.3739
 -0.50000    1.85     1.85   0.58560  -18.3734
 -0.45000    1.85     1.85   0.56356  -18.3704
 -0.40000    1.85     1.85   0.55234  -18.3681
 -0.35000    1.85     1.85   0.53492  -18.3650
 -0.30000    1.85     1.85   0.52080  -18.3598
 -0.25000    1.85     1.85   0.50468  -18.3536
 -0.20000    1.85     1.85   0.49142  -18.3457
 -0.15000    1.85     1.85   0.48092  -18.3292
 -0.10000    1.85     1.85   0.49718  -18.3222
 -0.05000    1.85     1.85   0.50180  -18.3189
 0.00000    1.85     1.85   0.50164  -18.3193
