 Field[T] Tsmpl[K] Tcntr[K] Signal   Mirror[MM]
 0.00000    1.83     1.83   0.31818  -18.3279
 0.05000    1.83     1.83   0.31747  -18.3262
 0.10000    1.83     1.83   0.31750  -18.3269
 0.15000    1.83     1.83   0.31517  -18.3256
 0.20000    1.83     1.83   0.31258  -18.3247
 0.25000    1.83     1.83   0.30883  -18.3248
 0.30000    1.83     1.83   0.30118  -18.3238
 0.35000    1.83     1.83   0.28797  -18.3243
 0.40000    1.83     1.83   0.27805  -18.3312
 0.45000    1.83     1.83   0.27299  -18.3392
 0.50000    1.83     1.83   0.27208  -18.3465
 0.55000    1.83     1.83   0.27794  -18.3545
 0.60000    1.83     1.83   0.28330  -18.3594
 0.65000    1.83     1.83   0.29131  -18.3652
 0.70000    1.83     1.83   0.29808  -18.3685
 0.75000    1.83     1.83   0.30626  -18.3712
 0.80000    1.83     1.83   0.31445  -18.3736
 0.85000    1.83     1.83   0.32211  -18.3746
 0.90000    1.83     1.83   0.33160  -18.3765
 0.95000    1.83     1.83   0.34088  -18.3773
 1.00000    1.83     1.83   0.34750  -18.3762
 1.05000    1.83     1.83   0.35846  -18.3754
 1.10000    1.83     1.83   0.36725  -18.3740
 1.15000    1.83     1.83   0.37432  -18.3723
 1.20000    1.83     1.83   0.38070  -18.3701
 1.25000    1.83     1.83   0.38600  -18.3677
 1.30000    1.83     1.83   0.39008  -18.3666
 1.35000    1.83     1.83   0.39334  -18.3636
 1.40000    1.83     1.83   0.39534  -18.3620
 1.45000    1.83     1.83   0.39867  -18.3595
 1.50000    1.83     1.83   0.40090  -18.3582
 1.55000    1.83     1.83   0.40130  -18.3566
 1.60000    1.83     1.83   0.40347  -18.3545
 1.65000    1.83     1.83   0.40554  -18.3533
 1.70000    1.83     1.83   0.40640  -18.3514
 1.75000    1.83     1.83   0.40730  -18.3503
 1.80000    1.83     1.83   0.40707  -18.3491
 1.85000    1.83     1.83   0.40875  -18.3474
 1.90000    1.83     1.83   0.40941  -18.3464
 1.95000    1.83     1.83   0.41051  -18.3452
 2.00000    1.83     1.83   0.41008  -18.3441
 2.05000    1.83     1.83   0.40920  -18.3426
 2.10000    1.83     1.83   0.41037  -18.3417
 2.15000    1.83     1.83   0.41034  -18.3408
 2.20000    1.83     1.83   0.41062  -18.3396
 2.25000    1.83     1.83   0.41096  -18.3392
 2.30000    1.83     1.83   0.41133  -18.3392
 2.35000    1.83     1.83   0.41179  -18.3382
 2.40000    1.83     1.83   0.41136  -18.3367
 2.45000    1.83     1.83   0.41122  -18.3365
 2.50000    1.83     1.83   0.41011  -18.3338
 2.55000    1.83     1.83   0.41200  -18.3347
 2.60000    1.83     1.83   0.41325  -18.3340
 2.65000    1.83     1.83   0.41269  -18.3337
 2.70000    1.83     1.83   0.41357  -18.3334
 2.75000    1.83     1.83   0.41432  -18.3328
 2.80000    1.83     1.83   0.41299  -18.3310
 2.85000    1.83     1.83   0.41400  -18.3309
 2.90000    1.83     1.83   0.41378  -18.3303
 2.95000    1.83     1.83   0.41374  -18.3298
 3.00000    1.83     1.83   0.41446  -18.3302
 3.05000    1.83     1.83   0.41317  -18.3292
 3.10000    1.83     1.83   0.41320  -18.3285
 3.15000    1.83     1.83   0.41414  -18.3278
 3.20000    1.83     1.83   0.41342  -18.3274
 3.25000    1.83     1.83   0.41286  -18.3267
 3.30000    1.83     1.83   0.41434  -18.3269
 3.35000    1.83     1.83   0.41354  -18.3265
 3.40000    1.83     1.83   0.41278  -18.3242
 3.45000    1.83     1.83   0.41357  -18.3253
 3.50000    1.83     1.83   0.41410  -18.3252
 3.55000    1.83     1.83   0.41368  -18.3247
 3.60000    1.83     1.83   0.41296  -18.3247
 3.65000    1.83     1.83   0.41286  -18.3234
 3.70000    1.83     1.83   0.41259  -18.3238
 3.75000    1.83     1.83   0.41210  -18.3233
 3.80000    1.83     1.83   0.41261  -18.3224
 3.85000    1.83     1.83   0.41214  -18.3225
 3.90000    1.83     1.83   0.41330  -18.3224
 3.95000    1.83     1.83   0.41221  -18.3221
 4.00000    1.83     1.83   0.41117  -18.3220
 4.05000    1.83     1.83   0.41211  -18.3217
 4.10000    1.83     1.83   0.41286  -18.3211
 4.15000    1.83     1.83   0.41294  -18.3208
 4.20000    1.83     1.83   0.41275  -18.3214
 4.25000    1.83     1.83   0.41078  -18.3199
 4.30000    1.83     1.83   0.41331  -18.3200
 4.35000    1.83     1.83   0.41235  -18.3202
 4.40000    1.83     1.83   0.41200  -18.3186
 4.45000    1.83     1.83   0.41264  -18.3196
 4.50000    1.83     1.83   0.41259  -18.3191
 4.55000    1.83     1.83   0.41386  -18.3193
 4.60000    1.83     1.83   0.41293  -18.3187
 4.65000    1.83     1.83   0.41285  -18.3190
 4.70000    1.83     1.83   0.41346  -18.3181
 4.75000    1.83     1.83   0.41333  -18.3177
 4.80000    1.83     1.83   0.41358  -18.3169
 4.85000    1.83     1.83   0.41374  -18.3169
 4.90000    1.83     1.83   0.41211  -18.3150
 4.95000    1.83     1.83   0.41339  -18.3163
 5.00000    1.83     1.83   0.41230  -18.3155
 5.05000    1.83     1.83   0.41310  -18.3152
 5.10000    1.83     1.83   0.41370  -18.3157
 5.15000    1.83     1.83   0.41346  -18.3156
 5.20000    1.83     1.83   0.41282  -18.3154
 5.25000    1.83     1.83   0.41278  -18.3153
 5.30000    1.83     1.83   0.41358  -18.3150
 5.35000    1.83     1.83   0.41200  -18.3144
 5.40000    1.83     1.83   0.41149  -18.3139
 5.45000    1.83     1.83   0.41256  -18.3143
 5.50000    1.83     1.83   0.41182  -18.3142
 5.55000    1.83     1.83   0.41224  -18.3137
 5.60000    1.83     1.83   0.41264  -18.3137
 5.65000    1.83     1.83   0.41320  -18.3133
 5.70000    1.83     1.83   0.41082  -18.3121
 5.75000    1.83     1.83   0.41182  -18.3128
 5.80000    1.83     1.83   0.41387  -18.3131
 5.85000    1.83     1.83   0.41266  -18.3121
 5.90000    1.83     1.83   0.41186  -18.3121
 5.95000    1.83     1.83   0.41296  -18.3118
 6.00000    1.83     1.83   0.41258  -18.3108
 6.05000    1.83     1.83   0.41282  -18.3113
 6.10000    1.83     1.83   0.41248  -18.3112
 6.15000    1.83     1.83   0.41312  -18.3112
 6.20000    1.83     1.83   0.41190  -18.3112
 6.25000    1.83     1.83   0.41178  -18.3111
 6.30000    1.83     1.83   0.41250  -18.3110
 6.35000    1.83     1.83   0.41283  -18.3110
 6.40000    1.83     1.83   0.41176  -18.3099
 6.45000    1.83     1.83   0.41224  -18.3101
 6.50000    1.83     1.83   0.41165  -18.3094
 6.55000    1.83     1.83   0.41235  -18.3102
 6.60000    1.83     1.83   0.41125  -18.3089
 6.65000    1.83     1.83   0.41259  -18.3100
 6.70000    1.83     1.83   0.41147  -18.3088
 6.75000    1.83     1.83   0.41144  -18.3090
 6.80000    1.83     1.83   0.41203  -18.3088
 6.85000    1.83     1.83   0.41152  -18.3085
 6.90000    1.83     1.83   0.41184  -18.3085
 6.95000    1.83     1.83   0.41171  -18.3082
 7.00000    1.83     1.83   0.41077  -18.3073
 7.00000    1.83     1.83   0.41155  -18.3077
 6.95000    1.83     1.83   0.40944  -18.3065
 6.90000    1.83     1.83   0.41210  -18.3082
 6.85000    1.83     1.83   0.41152  -18.3085
 6.80000    1.83     1.83   0.41248  -18.3084
 6.75000    1.83     1.83   0.41171  -18.3083
 6.70000    1.83     1.83   0.41227  -18.3094
 6.65000    1.83     1.83   0.41221  -18.3090
 6.60000    1.83     1.83   0.41227  -18.3091
 6.55000    1.83     1.83   0.41208  -18.3096
 6.50000    1.83     1.83   0.41286  -18.3099
 6.45000    1.83     1.83   0.41202  -18.3099
 6.40000    1.83     1.83   0.41286  -18.3099
 6.35000    1.83     1.83   0.41346  -18.3102
 6.30000    1.83     1.83   0.41333  -18.3108
 6.25000    1.83     1.83   0.41362  -18.3100
 6.20000    1.83     1.83   0.41392  -18.3109
 6.15000    1.83     1.83   0.41464  -18.3106
 6.10000    1.83     1.83   0.41421  -18.3104
 6.05000    1.83     1.83   0.41395  -18.3110
 6.00000    1.83     1.83   0.41446  -18.3110
 5.95000    1.83     1.83   0.41488  -18.3107
 5.90000    1.83     1.83   0.41416  -18.3111
 5.85000    1.83     1.83   0.41538  -18.3116
 5.80000    1.83     1.83   0.41522  -18.3120
 5.75000    1.83     1.83   0.41533  -18.3117
 5.70000    1.83     1.83   0.41568  -18.3119
 5.65000    1.83     1.83   0.41509  -18.3117
 5.60000    1.83     1.83   0.41557  -18.3126
 5.55000    1.83     1.83   0.41456  -18.3121
 5.50000    1.83     1.83   0.41533  -18.3126
 5.45000    1.83     1.83   0.41698  -18.3125
 5.40000    1.83     1.83   0.41643  -18.3125
 5.35000    1.83     1.83   0.41586  -18.3128
 5.30000    1.83     1.83   0.41677  -18.3137
 5.25000    1.83     1.83   0.41683  -18.3132
 5.20000    1.83     1.83   0.41648  -18.3128
 5.15000    1.83     1.83   0.41614  -18.3132
 5.10000    1.83     1.83   0.41581  -18.3138
 5.05000    1.83     1.83   0.41650  -18.3140
 5.00000    1.83     1.83   0.41389  -18.3144
 4.95000    1.83     1.83   0.41485  -18.3140
 4.90000    1.83     1.83   0.41618  -18.3145
 4.85000    1.83     1.83   0.41720  -18.3149
 4.80000    1.83     1.83   0.41506  -18.3148
 4.75000    1.83     1.83   0.41549  -18.3143
 4.70000    1.83     1.83   0.41554  -18.3145
 4.65000    1.83     1.83   0.41611  -18.3152
 4.60000    1.83     1.83   0.41630  -18.3152
 4.55000    1.83     1.83   0.41730  -18.3156
 4.50000    1.83     1.83   0.41744  -18.3153
 4.45000    1.83     1.83   0.41794  -18.3161
 4.40000    1.83     1.83   0.41731  -18.3165
 4.35000    1.83     1.83   0.41603  -18.3164
 4.30000    1.83     1.83   0.41714  -18.3165
 4.25000    1.83     1.83   0.41842  -18.3169
 4.20000    1.83     1.83   0.41866  -18.3173
 4.15000    1.83     1.83   0.41798  -18.3172
 4.10000    1.83     1.83   0.41776  -18.3178
 4.05000    1.83     1.83   0.41797  -18.3179
 4.00000    1.83     1.83   0.41907  -18.3178
 3.95000    1.83     1.83   0.41933  -18.3184
 3.90000    1.83     1.83   0.41912  -18.3183
 3.85000    1.83     1.83   0.41781  -18.3182
 3.80000    1.83     1.83   0.41878  -18.3183
 3.75000    1.83     1.83   0.41685  -18.3188
 3.70000    1.83     1.83   0.41832  -18.3192
 3.65000    1.83     1.83   0.41755  -18.3200
 3.60000    1.83     1.83   0.41862  -18.3198
 3.55000    1.83     1.83   0.41971  -18.3201
 3.50000    1.83     1.83   0.41955  -18.3202
 3.45000    1.83     1.83   0.41979  -18.3210
 3.40000    1.83     1.83   0.41870  -18.3207
 3.35000    1.83     1.83   0.42018  -18.3216
 3.30000    1.83     1.83   0.42006  -18.3217
 3.25000    1.83     1.83   0.41870  -18.3226
 3.20000    1.83     1.83   0.41886  -18.3228
 3.15000    1.83     1.83   0.41930  -18.3224
 3.10000    1.83     1.83   0.41829  -18.3234
 3.05000    1.83     1.83   0.41946  -18.3235
 3.00000    1.83     1.83   0.41925  -18.3238
 2.95000    1.83     1.83   0.41914  -18.3236
 2.90000    1.83     1.83   0.41946  -18.3252
 2.85000    1.83     1.83   0.42038  -18.3252
 2.80000    1.83     1.83   0.41930  -18.3259
 2.75000    1.83     1.83   0.41952  -18.3267
 2.70000    1.83     1.83   0.41957  -18.3269
 2.65000    1.83     1.83   0.41922  -18.3277
 2.60000    1.83     1.83   0.41890  -18.3279
 2.55000    1.83     1.83   0.41891  -18.3282
 2.50000    1.83     1.83   0.41933  -18.3297
 2.45000    1.83     1.83   0.41824  -18.3300
 2.40000    1.83     1.83   0.41904  -18.3310
 2.35000    1.83     1.83   0.41846  -18.3312
 2.30000    1.83     1.83   0.41957  -18.3320
 2.25000    1.83     1.83   0.41936  -18.3332
 2.20000    1.83     1.83   0.41728  -18.3320
 2.15000    1.83     1.83   0.41722  -18.3337
 2.10000    1.83     1.83   0.41854  -18.3349
 2.05000    1.83     1.83   0.41867  -18.3359
 2.00000    1.83     1.83   0.41693  -18.3366
 1.95000    1.83     1.83   0.41843  -18.3378
 1.90000    1.83     1.83   0.41726  -18.3387
 1.85000    1.83     1.83   0.41672  -18.3405
 1.80000    1.83     1.83   0.41555  -18.3413
 1.75000    1.83     1.83   0.41558  -18.3432
 1.70000    1.83     1.83   0.41661  -18.3449
 1.65000    1.83     1.83   0.41402  -18.3447
 1.60000    1.83     1.83   0.41320  -18.3465
 1.55000    1.83     1.83   0.41123  -18.3476
 1.50000    1.83     1.83   0.40950  -18.3501
 1.45000    1.83     1.83   0.40872  -18.3517
 1.40000    1.83     1.83   0.40611  -18.3540
 1.35000    1.83     1.83   0.40264  -18.3558
 1.30000    1.83     1.83   0.39838  -18.3571
 1.25000    1.83     1.83   0.39581  -18.3602
 1.20000    1.83     1.83   0.39259  -18.3639
 1.15000    1.83     1.83   0.38709  -18.3654
 1.10000    1.83     1.83   0.37931  -18.3664
 1.05000    1.83     1.83   0.37206  -18.3670
 1.00000    1.83     1.83   0.36184  -18.3666
 0.95000    1.83     1.83   0.35389  -18.3678
 0.90000    1.83     1.83   0.34530  -18.3685
 0.85000    1.83     1.83   0.33706  -18.3673
 0.80000    1.83     1.83   0.32949  -18.3655
 0.75000    1.83     1.83   0.31998  -18.3627
 0.70000    1.83     1.83   0.31293  -18.3608
 0.65000    1.83     1.83   0.30624  -18.3569
 0.60000    1.83     1.83   0.29941  -18.3528
 0.55000    1.83     1.83   0.29045  -18.3453
 0.50000    1.83     1.83   0.28576  -18.3381
 0.45000    1.83     1.83   0.28619  -18.3309
 0.40000    1.83     1.83   0.29018  -18.3235
 0.35000    1.83     1.83   0.30090  -18.3165
 0.30000    1.83     1.83   0.31690  -18.3146
 0.25000    1.83     1.83   0.32336  -18.3143
 0.20000    1.83     1.83   0.32741  -18.3138
 0.15000    1.83     1.83   0.33083  -18.3152
 0.10000    1.83     1.83   0.33477  -18.3163
 0.05000    1.83     1.83   0.33685  -18.3162
 -0.00000    1.83     1.83   0.33736  -18.3154
