 Field[T] Tsmpl[K] Tcntr[K] Signal
 6.95000    1.89     1.92   5.68790
 6.90000    1.89     1.92   5.71850
 6.85000    1.89     1.92   5.73090
 6.80000    1.89     1.92   5.76310
 6.75000    1.89     1.92   5.76870
 6.70000    1.89     1.92   5.81590
 6.65000    1.89     1.92   5.80130
 6.60000    1.89     1.92   5.81680
 6.55000    1.89     1.92   5.83200
 6.50000    1.89     1.92   5.82640
 6.45000    1.89     1.92   5.83870
 6.40000    1.89     1.92   5.84570
 6.35000    1.89     1.92   5.85230
 6.30000    1.89     1.92   5.85010
 6.25000    1.89     1.92   5.85420
 6.20000    1.89     1.92   5.85940
 6.15000    1.89     1.92   5.86390
 6.10000    1.89     1.92   5.86240
 6.05000    1.89     1.92   5.86590
 6.00000    1.89     1.92   5.84030
 5.95000    1.89     1.92   5.84710
 5.90000    1.89     1.92   5.83880
 5.85000    1.89     1.92   5.85670
 5.80000    1.89     1.92   5.82940
 5.75000    1.89     1.92   5.85260
 5.70000    1.89     1.92   5.83900
 5.65000    1.89     1.92   5.84760
 5.60000    1.89     1.92   5.83660
 5.55000    1.89     1.92   5.84690
 5.50000    1.89     1.92   5.84230
 5.45000    1.89     1.92   5.84490
 5.40000    1.89     1.91   5.84890
 5.35000    1.89     1.91   5.84770
 5.30000    1.89     1.91   5.85780
 5.25000    1.89     1.91   5.80460
 5.20000    1.89     1.91   5.84230
 5.15000    1.89     1.91   5.89960
 5.10000    1.89     1.91   5.83720
 5.05000    1.89     1.91   5.83260
 5.00000    1.89     1.91   5.82300
 4.95000    1.89     1.91   5.83550
 4.90000    1.89     1.91   5.83210
 4.85000    1.89     1.91   5.82710
 4.80000    1.89     1.91   5.83640
 4.75000    1.89     1.91   5.83570
 4.70000    1.89     1.91   5.85430
 4.65000    1.89     1.91   5.84450
 4.60000    1.89     1.91   5.84060
 4.55000    1.89     1.91   5.83750
 4.50000    1.89     1.91   5.83570
 4.45000    1.89     1.91   5.83160
 4.40000    1.88     1.91   5.82640
 4.35000    1.88     1.91   5.82370
 4.30000    1.88     1.91   5.82290
 4.25000    1.88     1.91   5.82660
 4.20000    1.88     1.91   5.83210
 4.15000    1.88     1.91   5.82470
 4.10000    1.88     1.90   5.82480
 4.05000    1.88     1.90   5.82870
 4.00000    1.88     1.90   5.83090
 3.95000    1.88     1.90   5.83180
 3.90000    1.88     1.90   5.83850
 3.85000    1.88     1.90   5.84570
 3.80000    1.88     1.90   5.84490
 3.75000    1.88     1.90   5.84880
 3.70000    1.88     1.90   5.84690
 3.65000    1.88     1.90   5.85380
 3.60000    1.88     1.90   5.85040
 3.55000    1.88     1.90   5.85200
 3.50000    1.88     1.90   5.85710
 3.45000    1.88     1.90   5.86710
 3.40000    1.88     1.90   5.86690
 3.35000    1.88     1.90   5.86840
 3.30000    1.88     1.90   5.87080
 3.25000    1.88     1.90   5.87200
 3.20000    1.88     1.90   5.86970
 3.15000    1.88     1.90   5.87200
 3.10000    1.88     1.90   5.86790
 3.05000    1.88     1.90   5.87980
 3.00000    1.88     1.89   5.87530
 2.95000    1.88     1.89   5.88150
 2.90000    1.88     1.89   5.88440
 2.85000    1.87     1.89   5.89150
 2.80000    1.87     1.89   5.89690
 2.75000    1.87     1.89   5.90700
 2.70000    1.87     1.89   5.90750
 2.65000    1.87     1.89   5.91810
 2.60000    1.87     1.89   5.92030
 2.55000    1.87     1.89   5.92810
 2.50000    1.87     1.89   5.94120
 2.45000    1.87     1.89   5.95170
 2.40000    1.87     1.89   5.95540
 2.35000    1.87     1.89   5.95400
 2.30000    1.87     1.89   5.95300
 2.25000    1.87     1.89   5.95420
 2.20000    1.87     1.89   5.95500
 2.15000    1.87     1.89   5.95440
 2.10000    1.86     1.89   5.94550
 2.05000    1.86     1.89   5.95230
 2.00000    1.86     1.89   5.94570
 1.95000    1.86     1.88   5.94610
 1.90000    1.86     1.88   5.95160
 1.85000    1.86     1.88   5.94780
 1.80000    1.86     1.88   5.95510
 1.75000    1.86     1.88   5.95700
 1.70000    1.86     1.88   5.96000
 1.65000    1.86     1.88   5.95980
 1.60000    1.86     1.88   5.96990
 1.55000    1.86     1.88   5.97670
 1.50000    1.86     1.88   5.97220
 1.45000    1.86     1.88   5.96990
 1.40000    1.86     1.88   5.96360
 1.35000    1.86     1.88   5.97000
 1.30000    1.86     1.88   5.95350
 1.25000    1.86     1.88   5.95820
 1.20000    1.86     1.88   5.95000
 1.15000    1.86     1.88   5.94200
 1.10000    1.85     1.88   5.93390
 1.05000    1.85     1.88   5.92800
 1.00000    1.85     1.88   5.91520
 0.95000    1.85     1.88   5.92230
 0.90000    1.85     1.88   5.92500
 0.85000    1.85     1.88   5.92980
 0.80000    1.85     1.88   5.92180
 0.75000    1.85     1.88   5.90460
 0.70000    1.85     1.88   5.90370
 0.65000    1.85     1.88   5.89900
 0.60000    1.85     1.88   5.90900
 0.55000    1.85     1.88   5.91160
 0.50000    1.85     1.88   5.89860
 0.45000    1.85     1.88   5.91110
 0.40000    1.85     1.88   5.91360
 0.35000    1.85     1.88   5.92210
 0.30000    1.85     1.88   5.91340
 0.25000    1.85     1.88   5.91990
 0.20000    1.85     1.88   5.91070
 0.15000    1.85     1.88   5.91940
 0.10000    1.85     1.88   5.91790
 0.05000    1.85     1.88   5.91260
-0.00000    1.85     1.88   5.90240
