 Field[T] Tsmpl[K] Tcntr[K] Signal   Mirror[MM]
 0.00000    1.85     1.87   0.45879  7.6052
 0.02000    1.85     1.87   0.45830  7.6060
 0.04000    1.85     1.87   0.45673  7.6079
 0.06000    1.85     1.87   0.45828  7.6057
 0.08000    1.85     1.87   0.45768  7.6047
 0.10000    1.85     1.87   0.45714  7.6060
 0.12000    1.85     1.87   0.45600  7.6072
 0.14000    1.85     1.87   0.45668  7.6061
 0.16000    1.85     1.87   0.45556  7.6064
 0.18000    1.85     1.87   0.45488  7.6062
 0.20000    1.85     1.87   0.45423  7.6062
 0.22000    1.85     1.87   0.45531  7.6053
 0.24000    1.85     1.87   0.45480  7.6048
 0.26000    1.85     1.87   0.45454  7.6046
 0.28000    1.85     1.87   0.45434  7.6049
 0.30000    1.85     1.87   0.45381  7.6047
 0.32000    1.85     1.87   0.45379  7.6046
 0.34000    1.85     1.87   0.45335  7.6044
 0.36000    1.85     1.87   0.45282  7.6049
 0.38000    1.85     1.87   0.45290  7.6047
 0.40000    1.85     1.87   0.45273  7.6051
 0.42000    1.85     1.87   0.45211  7.6055
 0.44000    1.85     1.87   0.45170  7.6061
 0.46000    1.85     1.87   0.45143  7.6061
 0.48000    1.85     1.87   0.45176  7.6060
 0.50000    1.85     1.87   0.45178  7.6056
 0.52000    1.85     1.87   0.45121  7.6053
 0.54000    1.85     1.87   0.45084  7.6067
 0.56000    1.85     1.87   0.45163  7.6054
 0.58000    1.85     1.87   0.45129  7.6054
 0.60000    1.85     1.87   0.45119  7.6056
 0.62000    1.85     1.87   0.45108  7.6051
 0.64000    1.85     1.87   0.45073  7.6057
 0.66000    1.85     1.87   0.45064  7.6055
 0.68000    1.85     1.87   0.45054  7.6054
 0.70000    1.85     1.87   0.45006  7.6057
 0.72000    1.85     1.87   0.45038  7.6049
 0.74000    1.85     1.87   0.44994  7.6045
 0.76000    1.85     1.87   0.44996  7.6049
 0.78000    1.85     1.87   0.44939  7.6050
 0.80000    1.85     1.87   0.44973  7.6056
 0.82000    1.85     1.87   0.44957  7.6052
 0.84000    1.85     1.87   0.44963  7.6056
 0.86000    1.85     1.87   0.44913  7.6066
 0.88000    1.85     1.87   0.44929  7.6056
 0.90000    1.85     1.87   0.44936  7.6053
 0.92000    1.85     1.87   0.44913  7.6052
 0.94000    1.85     1.87   0.44896  7.6048
 0.96000    1.85     1.87   0.44923  7.6055
 0.98000    1.85     1.87   0.44875  7.6053
 1.00000    1.85     1.87   0.44914  7.6049
 1.02000    1.85     1.87   0.44915  7.6049
 1.04000    1.85     1.87   0.44858  7.6049
 1.06000    1.85     1.87   0.44819  7.6055
 1.08000    1.85     1.87   0.44821  7.6054
 1.10000    1.85     1.87   0.44878  7.6042
 1.12000    1.85     1.87   0.44892  7.6042
 1.14000    1.85     1.87   0.44842  7.6045
 1.16000    1.85     1.87   0.44881  7.6043
 1.18000    1.85     1.87   0.44842  7.6044
 1.20000    1.85     1.87   0.44817  7.6047
 1.22000    1.85     1.87   0.44856  7.6045
 1.24000    1.85     1.87   0.44863  7.6046
 1.26000    1.85     1.87   0.44870  7.6050
 1.28000    1.85     1.87   0.44939  7.6045
 1.30000    1.85     1.87   0.44875  7.6053
 1.32000    1.85     1.87   0.44857  7.6055
 1.34000    1.85     1.87   0.44908  7.6039
 1.36000    1.85     1.87   0.44848  7.6049
 1.38000    1.85     1.87   0.44826  7.6045
 1.40000    1.85     1.87   0.44871  7.6043
 1.42000    1.85     1.87   0.44845  7.6039
 1.44000    1.85     1.87   0.44786  7.6045
 1.46000    1.85     1.87   0.44818  7.6034
 1.48000    1.85     1.87   0.44796  7.6044
 1.50000    1.85     1.87   0.44812  7.6040
 1.52000    1.85     1.87   0.44836  7.6037
 1.54000    1.85     1.87   0.44905  7.6030
 1.56000    1.85     1.87   0.44836  7.6038
 1.58000    1.85     1.87   0.44808  7.6045
 1.60000    1.85     1.87   0.44834  7.6040
 1.62000    1.85     1.87   0.44790  7.6041
 1.64000    1.85     1.87   0.44875  7.6037
 1.66000    1.85     1.87   0.44930  7.6037
 1.68000    1.85     1.87   0.44926  7.6040
 1.70000    1.85     1.87   0.44928  7.6043
 1.72000    1.85     1.87   0.44923  7.6047
 1.74000    1.85     1.87   0.44994  7.6041
 1.76000    1.85     1.87   0.44957  7.6044
 1.78000    1.85     1.87   0.44972  7.6051
 1.80000    1.85     1.87   0.45011  7.6052
 1.82000    1.85     1.87   0.45037  7.6052
 1.84000    1.85     1.88   0.44964  7.6058
 1.86000    1.85     1.88   0.44951  7.6067
 1.88000    1.85     1.88   0.45041  7.6064
 1.90000    1.85     1.88   0.44981  7.6064
 1.92000    1.85     1.88   0.45021  7.6061
 1.94000    1.85     1.88   0.44922  7.6065
 1.96000    1.85     1.88   0.45058  7.6063
 1.98000    1.85     1.88   0.45051  7.6067
 2.00000    1.85     1.88   0.45073  7.6068
 2.02000    1.85     1.88   0.45062  7.6072
 2.04000    1.85     1.88   0.44984  7.6072
 2.06000    1.85     1.88   0.45027  7.6075
 2.08000    1.85     1.88   0.45006  7.6078
 2.10000    1.85     1.88   0.45011  7.6078
 2.12000    1.85     1.88   0.45041  7.6078
 2.14000    1.85     1.88   0.45036  7.6082
 2.16000    1.85     1.88   0.45044  7.6076
 2.18000    1.85     1.88   0.45026  7.6075
 2.20000    1.85     1.88   0.45071  7.6078
 2.22000    1.85     1.88   0.45008  7.6086
 2.24000    1.86     1.88   0.45026  7.6087
 2.26000    1.86     1.88   0.45042  7.6089
 2.28000    1.86     1.88   0.45032  7.6089
 2.30000    1.86     1.88   0.45037  7.6085
 2.32000    1.86     1.88   0.45027  7.6088
 2.34000    1.86     1.88   0.44973  7.6098
 2.36000    1.86     1.88   0.44986  7.6098
 2.38000    1.86     1.88   0.45003  7.6095
 2.40000    1.86     1.88   0.44960  7.6097
 2.42000    1.86     1.88   0.44965  7.6101
 2.44000    1.86     1.88   0.44946  7.6101
 2.46000    1.86     1.88   0.44922  7.6106
 2.48000    1.86     1.88   0.44972  7.6101
 2.50000    1.86     1.88   0.44909  7.6110
 2.52000    1.86     1.88   0.44921  7.6106
 2.54000    1.86     1.88   0.44874  7.6109
 2.56000    1.86     1.88   0.44894  7.6110
 2.58000    1.86     1.88   0.44849  7.6115
 2.60000    1.86     1.88   0.44875  7.6109
 2.62000    1.86     1.88   0.44912  7.6109
 2.64000    1.86     1.88   0.44857  7.6113
 2.66000    1.86     1.88   0.44803  7.6113
 2.68000    1.86     1.88   0.44862  7.6104
 2.70000    1.86     1.88   0.44786  7.6114
 2.72000    1.86     1.88   0.44801  7.6108
 2.74000    1.86     1.88   0.44826  7.6109
 2.76000    1.86     1.88   0.44732  7.6119
 2.78000    1.86     1.88   0.44769  7.6108
 2.80000    1.86     1.89   0.44770  7.6110
 2.82000    1.86     1.89   0.44783  7.6110
 2.84000    1.86     1.89   0.44767  7.6110
 2.86000    1.86     1.89   0.44637  7.6130
 2.88000    1.86     1.89   0.44734  7.6112
 2.90000    1.86     1.89   0.44738  7.6118
 2.92000    1.86     1.89   0.44709  7.6122
 2.94000    1.86     1.89   0.44712  7.6117
 2.96000    1.86     1.89   0.44689  7.6123
 2.98000    1.86     1.89   0.44749  7.6115
 3.00000    1.86     1.89   0.44634  7.6133
