 Field[T] Tsmpl[K] Tcntr[K] Signal   Mirror[MM]
 0.00000    1.88     1.88   0.09049  -18.9216
 0.05000    1.88     1.88   0.09047  -18.9209
 0.10000    1.88     1.88   0.09046  -18.9202
 0.15000    1.88     1.88   0.09038  -18.9199
 0.20000    1.88     1.88   0.09033  -18.9198
 0.25000    1.88     1.88   0.09023  -18.9194
 0.30000    1.88     1.88   0.09029  -18.9190
 0.35000    1.88     1.88   0.09027  -18.9188
 0.40000    1.88     1.88   0.09033  -18.9186
 0.45000    1.88     1.88   0.09045  -18.9181
 0.50000    1.88     1.88   0.09041  -18.9178
 0.55000    1.88     1.88   0.09010  -18.9175
 0.60000    1.88     1.88   0.09020  -18.9172
 0.65000    1.88     1.88   0.09005  -18.9165
 0.70000    1.88     1.88   0.09020  -18.9160
 0.75000    1.88     1.88   0.08987  -18.9157
 0.80000    1.88     1.88   0.08985  -18.9149
 0.85000    1.88     1.88   0.08945  -18.9140
 0.90000    1.88     1.88   0.08860  -18.9133
 0.95000    1.88     1.88   0.08799  -18.9135
 1.00000    1.88     1.88   0.08749  -18.9136
 1.05000    1.88     1.88   0.08671  -18.9142
 1.10000    1.88     1.88   0.08650  -18.9150
 1.15000    1.88     1.88   0.08622  -18.9155
 1.20000    1.88     1.88   0.08585  -18.9165
 1.25000    1.88     1.88   0.08574  -18.9172
 1.30000    1.88     1.88   0.08572  -18.9182
 1.35000    1.88     1.88   0.08542  -18.9190
 1.40000    1.88     1.88   0.08547  -18.9200
 1.45000    1.88     1.88   0.08564  -18.9205
 1.50000    1.88     1.88   0.08553  -18.9211
 1.55000    1.88     1.88   0.08561  -18.9215
 1.60000    1.88     1.88   0.08573  -18.9221
 1.65000    1.88     1.88   0.08570  -18.9224
 1.70000    1.88     1.88   0.08583  -18.9229
 1.75000    1.88     1.88   0.08568  -18.9234
 1.80000    1.88     1.88   0.08579  -18.9236
 1.85000    1.88     1.88   0.08592  -18.9242
 1.90000    1.88     1.88   0.08581  -18.9246
 1.95000    1.88     1.88   0.08599  -18.9249
 2.00000    1.88     1.88   0.08614  -18.9254
 2.05000    1.88     1.88   0.08632  -18.9257
 2.10000    1.88     1.88   0.08643  -18.9260
 2.15000    1.88     1.88   0.08653  -18.9265
 2.20000    1.88     1.88   0.08670  -18.9267
 2.25000    1.88     1.88   0.08677  -18.9271
 2.30000    1.88     1.88   0.08667  -18.9273
 2.35000    1.88     1.88   0.08720  -18.9277
 2.40000    1.88     1.88   0.08731  -18.9277
 2.45000    1.88     1.88   0.08732  -18.9276
 2.50000    1.88     1.88   0.08754  -18.9276
 2.55000    1.88     1.88   0.08733  -18.9279
 2.60000    1.88     1.88   0.08774  -18.9277
 2.65000    1.88     1.88   0.08757  -18.9279
 2.70000    1.88     1.88   0.08798  -18.9279
 2.75000    1.88     1.88   0.08802  -18.9280
 2.80000    1.88     1.88   0.08805  -18.9279
 2.85000    1.88     1.88   0.08795  -18.9278
 2.90000    1.88     1.88   0.08818  -18.9275
 2.95000    1.88     1.88   0.08825  -18.9277
 3.00000    1.88     1.88   0.08846  -18.9275
 3.05000    1.88     1.88   0.08849  -18.9280
 3.10000    1.88     1.88   0.08842  -18.9281
 3.15000    1.88     1.88   0.08889  -18.9278
 3.20000    1.88     1.88   0.08856  -18.9277
 3.25000    1.88     1.88   0.08847  -18.9280
 3.30000    1.88     1.88   0.08908  -18.9281
 3.35000    1.88     1.88   0.08895  -18.9281
 3.40000    1.88     1.88   0.08903  -18.9276
 3.45000    1.88     1.88   0.08872  -18.9278
 3.50000    1.88     1.88   0.08913  -18.9281
 3.55000    1.88     1.88   0.08886  -18.9278
 3.60000    1.88     1.88   0.08924  -18.9277
 3.65000    1.88     1.88   0.08900  -18.9281
 3.70000    1.88     1.88   0.08932  -18.9278
 3.75000    1.88     1.88   0.08941  -18.9278
 3.80000    1.88     1.88   0.08924  -18.9279
 3.85000    1.88     1.88   0.08954  -18.9275
 3.90000    1.88     1.88   0.08934  -18.9277
 3.95000    1.88     1.88   0.08968  -18.9276
 4.00000    1.88     1.88   0.08950  -18.9277
 4.05000    1.88     1.88   0.08959  -18.9280
 4.10000    1.88     1.88   0.08984  -18.9282
 4.15000    1.88     1.88   0.08949  -18.9279
 4.20000    1.88     1.88   0.08941  -18.9281
 4.25000    1.88     1.88   0.08978  -18.9281
 4.30000    1.88     1.88   0.08982  -18.9281
 4.35000    1.88     1.88   0.08973  -18.9284
 4.40000    1.88     1.88   0.08980  -18.9284
 4.45000    1.88     1.88   0.08992  -18.9283
 4.50000    1.88     1.88   0.08990  -18.9285
 4.55000    1.88     1.88   0.08980  -18.9285
 4.60000    1.88     1.88   0.08980  -18.9282
 4.65000    1.88     1.88   0.08998  -18.9279
 4.70000    1.88     1.88   0.08997  -18.9282
 4.75000    1.88     1.88   0.08985  -18.9283
 4.80000    1.88     1.88   0.09009  -18.9281
 4.85000    1.88     1.88   0.09021  -18.9284
 4.90000    1.88     1.88   0.09020  -18.9281
 4.95000    1.88     1.88   0.08998  -18.9277
 5.00000    1.88     1.88   0.09000  -18.9280
 5.05000    1.88     1.88   0.09014  -18.9274
 5.10000    1.88     1.88   0.09061  -18.9274
 5.15000    1.88     1.88   0.09010  -18.9279
 5.20000    1.88     1.88   0.09033  -18.9286
 5.25000    1.88     1.88   0.09034  -18.9283
 5.30000    1.88     1.88   0.09022  -18.9284
 5.35000    1.88     1.88   0.09051  -18.9284
 5.40000    1.88     1.88   0.09032  -18.9286
 5.45000    1.88     1.88   0.09037  -18.9285
 5.50000    1.88     1.88   0.09039  -18.9284
 5.55000    1.88     1.88   0.09037  -18.9285
 5.60000    1.88     1.88   0.09033  -18.9287
 5.65000    1.88     1.88   0.09059  -18.9289
 5.70000    1.88     1.88   0.09055  -18.9286
 5.75000    1.88     1.88   0.09065  -18.9285
 5.80000    1.88     1.88   0.09070  -18.9284
 5.85000    1.88     1.88   0.09032  -18.9286
 5.90000    1.88     1.88   0.09064  -18.9284
 5.95000    1.88     1.88   0.09075  -18.9285
 6.00000    1.88     1.88   0.09058  -18.9285
 6.05000    1.88     1.88   0.09067  -18.9287
 6.10000    1.88     1.88   0.09063  -18.9285
 6.15000    1.88     1.88   0.09094  -18.9287
 6.20000    1.88     1.88   0.09066  -18.9287
 6.25000    1.88     1.88   0.09095  -18.9288
 6.30000    1.88     1.88   0.09066  -18.9288
 6.35000    1.88     1.88   0.09086  -18.9288
 6.40000    1.88     1.88   0.09081  -18.9285
 6.45000    1.88     1.88   0.09087  -18.9286
 6.50000    1.88     1.88   0.09124  -18.9287
 6.55000    1.88     1.88   0.09085  -18.9287
 6.60000    1.88     1.88   0.09105  -18.9285
 6.65000    1.88     1.88   0.09104  -18.9285
 6.70000    1.88     1.88   0.09122  -18.9282
 6.75000    1.88     1.88   0.09117  -18.9284
 6.80000    1.88     1.88   0.09112  -18.9286
 6.85000    1.88     1.88   0.09121  -18.9285
 6.90000    1.88     1.88   0.09151  -18.9286
 6.95000    1.88     1.88   0.09114  -18.9288
 7.00000    1.88     1.88   0.09151  -18.9285
