 Field[T] Tsmpl[K] Tcntr[K] Signal   Mirror[MM]
 0.00000    1.89     1.89   0.04292  -19.0851
 0.05000    1.89     1.89   0.04296  -19.0845
 0.10000    1.89     1.89   0.04297  -19.0844
 0.15000    1.89     1.89   0.04297  -19.0839
 0.20000    1.89     1.89   0.04298  -19.0834
 0.25000    1.89     1.89   0.04293  -19.0832
 0.30000    1.89     1.89   0.04296  -19.0829
 0.35000    1.89     1.89   0.04290  -19.0828
 0.40000    1.89     1.89   0.04287  -19.0824
 0.45000    1.89     1.89   0.04285  -19.0822
 0.50000    1.89     1.89   0.04281  -19.0822
 0.55000    1.89     1.89   0.04279  -19.0816
 0.60000    1.89     1.89   0.04271  -19.0810
 0.65000    1.89     1.89   0.04268  -19.0807
 0.70000    1.89     1.89   0.04267  -19.0802
 0.75000    1.89     1.89   0.04260  -19.0801
 0.80000    1.89     1.89   0.04258  -19.0798
 0.85000    1.89     1.89   0.04253  -19.0789
 0.90000    1.89     1.89   0.04252  -19.0789
 0.95000    1.89     1.89   0.04253  -19.0792
 1.00000    1.89     1.89   0.04250  -19.0788
 1.05000    1.89     1.89   0.04250  -19.0785
 1.10000    1.89     1.89   0.04245  -19.0785
 1.15000    1.89     1.89   0.04241  -19.0778
 1.20000    1.89     1.89   0.04219  -19.0769
 1.25000    1.89     1.89   0.04192  -19.0766
 1.30000    1.89     1.89   0.04166  -19.0766
 1.35000    1.89     1.89   0.04144  -19.0766
 1.40000    1.89     1.89   0.04125  -19.0769
 1.45000    1.89     1.89   0.04108  -19.0772
 1.50000    1.89     1.89   0.04097  -19.0777
 1.55000    1.89     1.89   0.04085  -19.0783
 1.60000    1.89     1.89   0.04077  -19.0786
 1.65000    1.89     1.89   0.04072  -19.0791
 1.70000    1.89     1.89   0.04073  -19.0796
 1.75000    1.89     1.89   0.04070  -19.0796
 1.80000    1.89     1.89   0.04069  -19.0787
 1.85000    1.89     1.89   0.04070  -19.0796
 1.90000    1.89     1.89   0.04073  -19.0803
 1.95000    1.89     1.89   0.04072  -19.0816
 2.00000    1.89     1.89   0.04076  -19.0823
 2.05000    1.89     1.89   0.04079  -19.0823
 2.10000    1.89     1.89   0.04081  -19.0827
 2.15000    1.89     1.89   0.04087  -19.0829
 2.20000    1.89     1.89   0.04086  -19.0832
 2.25000    1.89     1.89   0.04092  -19.0837
 2.30000    1.89     1.89   0.04096  -19.0841
 2.35000    1.89     1.89   0.04098  -19.0840
 2.40000    1.89     1.89   0.04102  -19.0842
 2.45000    1.89     1.89   0.04109  -19.0842
 2.50000    1.89     1.89   0.04111  -19.0846
 2.55000    1.89     1.89   0.04116  -19.0847
 2.60000    1.89     1.89   0.04121  -19.0849
 2.65000    1.89     1.89   0.04127  -19.0851
 2.70000    1.89     1.89   0.04129  -19.0850
 2.75000    1.89     1.89   0.04135  -19.0854
 2.80000    1.89     1.89   0.04141  -19.0856
 2.85000    1.89     1.89   0.04144  -19.0858
 2.90000    1.89     1.89   0.04151  -19.0861
 2.95000    1.89     1.89   0.04155  -19.0858
 3.00000    1.89     1.89   0.04161  -19.0856
 3.05000    1.89     1.89   0.04167  -19.0858
 3.10000    1.89     1.89   0.04169  -19.0859
 3.15000    1.89     1.89   0.04176  -19.0856
 3.20000    1.89     1.89   0.04181  -19.0852
 3.25000    1.89     1.89   0.04180  -19.0853
 3.30000    1.89     1.89   0.04186  -19.0854
 3.35000    1.89     1.89   0.04191  -19.0853
 3.40000    1.89     1.89   0.04197  -19.0854
 3.45000    1.89     1.89   0.04199  -19.0855
 3.50000    1.89     1.89   0.04204  -19.0856
 3.55000    1.89     1.89   0.04207  -19.0854
 3.60000    1.89     1.89   0.04210  -19.0852
 3.65000    1.89     1.89   0.04213  -19.0854
 3.70000    1.89     1.89   0.04216  -19.0855
 3.75000    1.89     1.89   0.04220  -19.0857
 3.80000    1.89     1.89   0.04224  -19.0852
 3.85000    1.89     1.89   0.04229  -19.0852
 3.90000    1.89     1.89   0.04230  -19.0850
 3.95000    1.89     1.89   0.04233  -19.0850
 4.00000    1.89     1.89   0.04235  -19.0852
 4.05000    1.89     1.89   0.04239  -19.0854
 4.10000    1.89     1.89   0.04243  -19.0853
 4.15000    1.89     1.89   0.04245  -19.0846
 4.20000    1.89     1.89   0.04250  -19.0846
 4.25000    1.89     1.89   0.04248  -19.0849
 4.30000    1.89     1.89   0.04253  -19.0852
 4.35000    1.89     1.89   0.04256  -19.0853
 4.40000    1.89     1.89   0.04255  -19.0851
 4.45000    1.89     1.89   0.04261  -19.0851
 4.50000    1.89     1.89   0.04260  -19.0850
 4.55000    1.89     1.89   0.04263  -19.0849
 4.60000    1.89     1.89   0.04264  -19.0848
 4.65000    1.89     1.89   0.04267  -19.0848
 4.70000    1.89     1.89   0.04269  -19.0847
 4.75000    1.89     1.89   0.04271  -19.0848
 4.80000    1.89     1.89   0.04274  -19.0848
 4.85000    1.89     1.89   0.04276  -19.0848
 4.90000    1.89     1.89   0.04279  -19.0848
 4.95000    1.89     1.89   0.04279  -19.0846
 5.00000    1.89     1.89   0.04281  -19.0845
 5.05000    1.89     1.89   0.04284  -19.0846
 5.10000    1.89     1.89   0.04287  -19.0847
 5.15000    1.89     1.89   0.04289  -19.0848
 5.20000    1.89     1.89   0.04292  -19.0846
 5.25000    1.89     1.89   0.04293  -19.0847
 5.30000    1.89     1.89   0.04295  -19.0844
 5.35000    1.89     1.89   0.04297  -19.0845
 5.40000    1.89     1.89   0.04300  -19.0843
 5.45000    1.89     1.89   0.04300  -19.0841
 5.50000    1.89     1.89   0.04304  -19.0843
 5.55000    1.89     1.89   0.04309  -19.0844
 5.60000    1.89     1.89   0.04304  -19.0844
 5.65000    1.89     1.89   0.04306  -19.0844
 5.70000    1.89     1.89   0.04309  -19.0844
 5.75000    1.89     1.89   0.04312  -19.0844
 5.80000    1.89     1.89   0.04315  -19.0845
 5.85000    1.89     1.89   0.04317  -19.0846
 5.90000    1.89     1.89   0.04318  -19.0847
 5.95000    1.89     1.89   0.04319  -19.0845
 6.00000    1.89     1.89   0.04325  -19.0846
 6.05000    1.89     1.89   0.04325  -19.0844
 6.10000    1.89     1.89   0.04330  -19.0844
 6.15000    1.89     1.89   0.04329  -19.0842
 6.20000    1.89     1.89   0.04331  -19.0843
 6.25000    1.89     1.89   0.04332  -19.0844
 6.30000    1.89     1.89   0.04335  -19.0844
 6.35000    1.89     1.89   0.04337  -19.0844
 6.40000    1.89     1.89   0.04344  -19.0845
 6.45000    1.89     1.89   0.04341  -19.0842
 6.50000    1.89     1.89   0.04344  -19.0841
 6.55000    1.89     1.89   0.04347  -19.0842
 6.60000    1.89     1.89   0.04345  -19.0842
 6.65000    1.89     1.89   0.04351  -19.0842
 6.70000    1.89     1.89   0.04352  -19.0841
 6.75000    1.89     1.89   0.04354  -19.0842
 6.80000    1.89     1.89   0.04357  -19.0841
 6.85000    1.89     1.89   0.04359  -19.0844
 6.90000    1.89     1.89   0.04362  -19.0841
 6.95000    1.89     1.89   0.04360  -19.0842
 7.00000    1.89     1.89   0.04362  -19.0840
