 Field[T] Tsmpl[K] Tcntr[K] Signal   Mirror[MM]
 0.00000    1.80     1.80   0.45924  -10.8410
 0.05000    1.80     1.80   0.45953  -10.8406
 0.10000    1.80     1.80   0.45951  -10.8405
 0.15000    1.80     1.80   0.45965  -10.8406
 0.20000    1.80     1.80   0.45891  -10.8407
 0.25000    1.80     1.80   0.45826  -10.8411
 0.30000    1.80     1.80   0.45713  -10.8413
 0.35000    1.80     1.80   0.45506  -10.8418
 0.40000    1.80     1.80   0.45226  -10.8431
 0.45000    1.80     1.80   0.44763  -10.8455
 0.50000    1.80     1.80   0.44456  -10.8504
 0.55000    1.80     1.80   0.44417  -10.8578
 0.60000    1.80     1.80   0.44891  -10.8640
 0.65000    1.80     1.80   0.45502  -10.8683
 0.70000    1.80     1.80   0.46116  -10.8703
 0.75000    1.80     1.80   0.46782  -10.8720
 0.80000    1.80     1.80   0.47419  -10.8728
 0.85000    1.80     1.80   0.48027  -10.8728
 0.90000    1.80     1.80   0.48654  -10.8717
 0.95000    1.80     1.80   0.49053  -10.8699
 1.00000    1.80     1.80   0.49406  -10.8682
 1.05000    1.80     1.80   0.49679  -10.8663
 1.10000    1.80     1.80   0.49851  -10.8646
 1.15000    1.80     1.80   0.49942  -10.8628
 1.20000    1.80     1.80   0.50000  -10.8618
 1.25000    1.80     1.80   0.50053  -10.8605
 1.30000    1.80     1.80   0.50077  -10.8597
 1.35000    1.80     1.80   0.50083  -10.8589
 1.40000    1.80     1.80   0.50083  -10.8582
 1.45000    1.80     1.80   0.50135  -10.8579
 1.50000    1.80     1.80   0.50111  -10.8573
 1.55000    1.80     1.80   0.50098  -10.8568
 1.60000    1.80     1.80   0.50102  -10.8567
 1.65000    1.80     1.80   0.50081  -10.8562
 1.70000    1.80     1.80   0.50087  -10.8560
 1.75000    1.80     1.80   0.50076  -10.8555
 1.80000    1.80     1.80   0.50059  -10.8555
 1.85000    1.80     1.80   0.50066  -10.8549
 1.90000    1.80     1.80   0.50040  -10.8551
 1.95000    1.80     1.80   0.50037  -10.8549
 2.00000    1.80     1.80   0.50040  -10.8546
 2.05000    1.80     1.80   0.50047  -10.8546
 2.10000    1.80     1.80   0.50013  -10.8543
 2.15000    1.80     1.80   0.50034  -10.8546
 2.20000    1.80     1.80   0.50043  -10.8544
 2.25000    1.80     1.80   0.50021  -10.8546
 2.30000    1.80     1.80   0.50022  -10.8543
 2.35000    1.80     1.80   0.49968  -10.8541
 2.40000    1.80     1.80   0.50005  -10.8539
 2.45000    1.80     1.80   0.49964  -10.8540
 2.50000    1.80     1.80   0.49975  -10.8541
 2.55000    1.80     1.80   0.49963  -10.8539
 2.60000    1.80     1.80   0.49969  -10.8539
 2.65000    1.80     1.80   0.49960  -10.8537
 2.70000    1.80     1.80   0.49950  -10.8539
 2.75000    1.80     1.80   0.49931  -10.8537
 2.80000    1.80     1.80   0.49900  -10.8538
 2.85000    1.80     1.80   0.49904  -10.8538
 2.90000    1.80     1.80   0.49902  -10.8539
 2.95000    1.80     1.80   0.49914  -10.8536
 3.00000    1.80     1.80   0.49890  -10.8537
 3.00000    1.80     1.80   0.49897  -10.8538
 2.95000    1.80     1.80   0.49897  -10.8537
 2.90000    1.80     1.80   0.49930  -10.8540
 2.85000    1.80     1.80   0.49941  -10.8540
 2.80000    1.80     1.80   0.49958  -10.8539
 2.75000    1.80     1.80   0.49958  -10.8542
 2.70000    1.80     1.80   0.49967  -10.8540
 2.65000    1.80     1.80   0.49984  -10.8540
 2.60000    1.80     1.80   0.50009  -10.8541
 2.55000    1.80     1.80   0.49983  -10.8544
 2.50000    1.80     1.80   0.49998  -10.8544
 2.45000    1.80     1.80   0.50020  -10.8541
 2.40000    1.80     1.80   0.50027  -10.8543
 2.35000    1.80     1.80   0.50047  -10.8545
 2.30000    1.80     1.80   0.50066  -10.8547
 2.25000    1.80     1.80   0.50039  -10.8547
 2.20000    1.80     1.80   0.50094  -10.8548
 2.15000    1.80     1.80   0.50139  -10.8550
 2.10000    1.80     1.80   0.50124  -10.8552
 2.05000    1.80     1.80   0.50165  -10.8554
 2.00000    1.80     1.80   0.50186  -10.8555
 1.95000    1.80     1.80   0.50162  -10.8556
 1.90000    1.80     1.80   0.50155  -10.8559
 1.85000    1.80     1.80   0.50201  -10.8558
 1.80000    1.80     1.80   0.50170  -10.8557
 1.75000    1.80     1.80   0.50139  -10.8562
 1.70000    1.80     1.80   0.50219  -10.8555
 1.65000    1.80     1.80   0.50141  -10.8547
 1.60000    1.80     1.80   0.50206  -10.8559
 1.55000    1.80     1.80   0.50298  -10.8573
 1.50000    1.80     1.80   0.50304  -10.8577
 1.45000    1.80     1.80   0.50305  -10.8582
 1.40000    1.80     1.80   0.50334  -10.8588
 1.35000    1.80     1.80   0.50386  -10.8594
 1.30000    1.80     1.80   0.50390  -10.8602
 1.25000    1.80     1.80   0.50316  -10.8609
 1.20000    1.80     1.80   0.50330  -10.8620
 1.15000    1.80     1.80   0.50312  -10.8631
 1.10000    1.80     1.80   0.50205  -10.8644
 1.05000    1.80     1.80   0.50040  -10.8668
 1.00000    1.80     1.80   0.49840  -10.8687
 0.95000    1.80     1.80   0.49482  -10.8702
 0.90000    1.80     1.80   0.49070  -10.8720
 0.85000    1.80     1.80   0.48518  -10.8729
 0.80000    1.80     1.80   0.47919  -10.8730
 0.75000    1.80     1.80   0.47353  -10.8722
 0.70000    1.80     1.80   0.46706  -10.8708
 0.65000    1.80     1.80   0.46020  -10.8682
 0.60000    1.80     1.80   0.45436  -10.8644
 0.55000    1.80     1.80   0.44995  -10.8586
 0.50000    1.80     1.80   0.44910  -10.8516
 0.45000    1.80     1.80   0.45251  -10.8457
 0.40000    1.80     1.80   0.45726  -10.8428
 0.35000    1.80     1.80   0.46106  -10.8417
 0.30000    1.80     1.80   0.46328  -10.8412
 0.25000    1.80     1.80   0.46502  -10.8405
 0.20000    1.80     1.80   0.46634  -10.8400
 0.15000    1.80     1.80   0.46708  -10.8399
 0.10000    1.80     1.80   0.46782  -10.8397
 0.05000    1.80     1.80   0.46827  -10.8399
 -0.00000    1.80     1.80   0.46839  -10.8400
