 Field[T] Tsmpl[K] Tcntr[K] Signal   Mirror[MM]
 0.00000    1.75     1.75   0.18766  -10.9617
 0.05000    1.75     1.75   0.18783  -10.9618
 0.10000    1.75     1.75   0.18796  -10.9618
 0.15000    1.75     1.75   0.18769  -10.9617
 0.20000    1.75     1.75   0.18766  -10.9615
 0.25000    1.75     1.75   0.18783  -10.9616
 0.30000    1.75     1.75   0.18781  -10.9614
 0.35000    1.75     1.75   0.18746  -10.9617
 0.40000    1.75     1.75   0.18762  -10.9616
 0.45000    1.75     1.75   0.18780  -10.9617
 0.50000    1.75     1.75   0.18767  -10.9617
 0.55000    1.75     1.75   0.18754  -10.9616
 0.60000    1.75     1.75   0.18754  -10.9618
 0.65000    1.75     1.75   0.18767  -10.9619
 0.70000    1.75     1.75   0.18756  -10.9616
 0.75000    1.75     1.75   0.18752  -10.9617
 0.80000    1.75     1.75   0.18762  -10.9617
 0.85000    1.75     1.75   0.18763  -10.9617
 0.90000    1.75     1.75   0.18733  -10.9617
 0.95000    1.75     1.75   0.18741  -10.9617
 1.00000    1.75     1.75   0.18754  -10.9616
 1.05000    1.75     1.75   0.18749  -10.9615
 1.10000    1.75     1.75   0.18710  -10.9616
 1.15000    1.75     1.75   0.18716  -10.9615
 1.20000    1.75     1.75   0.18715  -10.9615
 1.25000    1.75     1.75   0.18702  -10.9616
 1.30000    1.75     1.75   0.18691  -10.9614
 1.35000    1.75     1.75   0.18696  -10.9616
 1.40000    1.75     1.75   0.18698  -10.9614
 1.45000    1.75     1.75   0.18649  -10.9614
 1.50000    1.75     1.75   0.18636  -10.9615
 1.55000    1.75     1.75   0.18649  -10.9614
 1.60000    1.75     1.75   0.18618  -10.9615
 1.65000    1.75     1.75   0.18601  -10.9615
 1.70000    1.75     1.75   0.18591  -10.9615
 1.75000    1.75     1.75   0.18605  -10.9614
 1.80000    1.75     1.75   0.18581  -10.9617
 1.85000    1.75     1.75   0.18563  -10.9617
 1.90000    1.75     1.75   0.18577  -10.9617
 1.95000    1.75     1.75   0.18595  -10.9618
 2.00000    1.75     1.75   0.18576  -10.9619
 2.05000    1.75     1.75   0.18566  -10.9619
 2.10000    1.75     1.75   0.18582  -10.9620
 2.15000    1.75     1.75   0.18595  -10.9621
 2.20000    1.75     1.75   0.18570  -10.9621
 2.25000    1.75     1.75   0.18561  -10.9622
 2.30000    1.75     1.75   0.18580  -10.9620
 2.35000    1.75     1.75   0.18567  -10.9624
 2.40000    1.75     1.75   0.18538  -10.9622
 2.45000    1.75     1.75   0.18554  -10.9623
 2.50000    1.75     1.75   0.18564  -10.9623
 2.55000    1.75     1.75   0.18536  -10.9626
 2.60000    1.75     1.75   0.18525  -10.9625
 2.65000    1.75     1.75   0.18533  -10.9625
 2.70000    1.75     1.75   0.18567  -10.9628
 2.75000    1.75     1.75   0.18544  -10.9627
 2.80000    1.75     1.75   0.18533  -10.9627
 2.85000    1.75     1.75   0.18562  -10.9626
 2.90000    1.75     1.75   0.18571  -10.9627
 2.95000    1.75     1.75   0.18541  -10.9628
 3.00000    1.75     1.75   0.18541  -10.9631
 3.05000    1.75     1.75   0.18556  -10.9631
 3.10000    1.75     1.75   0.18562  -10.9632
 3.15000    1.75     1.75   0.18540  -10.9632
 3.20000    1.75     1.75   0.18564  -10.9633
 3.25000    1.75     1.75   0.18579  -10.9634
 3.30000    1.75     1.75   0.18588  -10.9636
 3.35000    1.75     1.75   0.18602  -10.9634
 3.40000    1.75     1.75   0.18614  -10.9635
 3.45000    1.75     1.75   0.18629  -10.9636
 3.50000    1.75     1.75   0.18618  -10.9637
 3.55000    1.75     1.75   0.18610  -10.9638
 3.60000    1.75     1.75   0.18654  -10.9637
 3.65000    1.75     1.75   0.18642  -10.9638
 3.70000    1.75     1.75   0.18654  -10.9637
 3.75000    1.75     1.75   0.18671  -10.9639
 3.80000    1.75     1.75   0.18702  -10.9638
 3.85000    1.75     1.75   0.18699  -10.9640
 3.90000    1.75     1.75   0.18706  -10.9640
 3.95000    1.75     1.75   0.18720  -10.9641
 4.00000    1.75     1.75   0.18738  -10.9640
 4.00000    1.75     1.75   0.18738  -10.9639
 3.95000    1.75     1.75   0.18750  -10.9639
 3.90000    1.75     1.75   0.18750  -10.9640
 3.85000    1.75     1.75   0.18772  -10.9639
 3.80000    1.75     1.75   0.18758  -10.9640
 3.75000    1.75     1.75   0.18763  -10.9638
 3.70000    1.75     1.75   0.18766  -10.9638
 3.65000    1.75     1.75   0.18785  -10.9637
 3.60000    1.75     1.75   0.18779  -10.9638
 3.55000    1.75     1.75   0.18764  -10.9636
 3.50000    1.75     1.75   0.18780  -10.9634
 3.45000    1.75     1.75   0.18785  -10.9637
 3.40000    1.75     1.75   0.18777  -10.9636
 3.35000    1.75     1.75   0.18775  -10.9638
 3.30000    1.75     1.75   0.18790  -10.9636
 3.25000    1.75     1.75   0.18791  -10.9637
 3.20000    1.75     1.75   0.18762  -10.9634
 3.15000    1.75     1.75   0.18780  -10.9633
 3.10000    1.75     1.75   0.18813  -10.9635
 3.05000    1.75     1.75   0.18793  -10.9631
 3.00000    1.75     1.75   0.18785  -10.9631
 2.95000    1.75     1.75   0.18808  -10.9632
 2.90000    1.75     1.75   0.18815  -10.9631
 2.85000    1.75     1.75   0.18815  -10.9628
 2.80000    1.75     1.75   0.18822  -10.9626
 2.75000    1.75     1.75   0.18846  -10.9627
 2.70000    1.75     1.75   0.18851  -10.9628
 2.65000    1.75     1.75   0.18842  -10.9626
 2.60000    1.75     1.75   0.18854  -10.9626
 2.55000    1.75     1.75   0.18886  -10.9628
 2.50000    1.75     1.75   0.18874  -10.9624
 2.45000    1.75     1.75   0.18856  -10.9622
 2.40000    1.75     1.75   0.18878  -10.9622
 2.35000    1.75     1.75   0.18907  -10.9620
 2.30000    1.75     1.75   0.18898  -10.9620
 2.25000    1.75     1.75   0.18897  -10.9620
 2.20000    1.75     1.75   0.18903  -10.9621
 2.15000    1.75     1.75   0.18921  -10.9619
 2.10000    1.75     1.75   0.18903  -10.9617
 2.05000    1.75     1.75   0.18900  -10.9618
 2.00000    1.75     1.75   0.18921  -10.9619
 1.95000    1.75     1.75   0.18932  -10.9617
 1.90000    1.75     1.75   0.18907  -10.9617
 1.85000    1.75     1.75   0.18924  -10.9617
 1.80000    1.75     1.75   0.18926  -10.9617
 1.75000    1.75     1.75   0.18949  -10.9613
 1.70000    1.75     1.75   0.18940  -10.9616
 1.65000    1.75     1.75   0.18955  -10.9614
 1.60000    1.75     1.75   0.18980  -10.9611
 1.55000    1.75     1.75   0.18999  -10.9612
 1.50000    1.75     1.75   0.18985  -10.9612
 1.45000    1.75     1.75   0.19006  -10.9612
 1.40000    1.75     1.75   0.19033  -10.9609
 1.35000    1.75     1.75   0.19025  -10.9611
 1.30000    1.75     1.75   0.19032  -10.9614
 1.25000    1.75     1.75   0.19045  -10.9613
 1.20000    1.75     1.75   0.19059  -10.9615
 1.15000    1.75     1.75   0.19049  -10.9613
 1.10000    1.75     1.75   0.19037  -10.9612
 1.05000    1.75     1.75   0.19042  -10.9611
 1.00000    1.75     1.75   0.19055  -10.9613
 0.95000    1.75     1.75   0.19027  -10.9612
 0.90000    1.75     1.75   0.19035  -10.9611
 0.85000    1.75     1.75   0.19055  -10.9610
 0.80000    1.75     1.75   0.19046  -10.9610
 0.75000    1.75     1.75   0.19022  -10.9611
 0.70000    1.75     1.75   0.19032  -10.9611
 0.65000    1.75     1.75   0.19033  -10.9609
 0.60000    1.75     1.75   0.19008  -10.9609
 0.55000    1.75     1.75   0.19005  -10.9610
 0.50000    1.75     1.75   0.19012  -10.9610
 0.45000    1.75     1.75   0.19015  -10.9612
 0.40000    1.75     1.75   0.18996  -10.9612
 0.35000    1.75     1.75   0.18980  -10.9611
 0.30000    1.75     1.75   0.18999  -10.9610
 0.25000    1.75     1.75   0.18993  -10.9609
 0.20000    1.75     1.75   0.18969  -10.9609
 0.15000    1.75     1.75   0.18983  -10.9610
 0.10000    1.75     1.75   0.19006  -10.9610
 0.05000    1.75     1.75   0.18979  -10.9611
 -0.00000    1.75     1.75   0.18952  -10.9610
