 Field[T] Tsmpl[K] Tcntr[K] Signal   Mirror[MM]
 0.00000    1.80     1.80   0.16568  -10.9694
 0.05000    1.80     1.80   0.16558  -10.9693
 0.10000    1.80     1.80   0.16558  -10.9690
 0.15000    1.80     1.80   0.16554  -10.9689
 0.20000    1.80     1.80   0.16550  -10.9688
 0.25000    1.80     1.80   0.16539  -10.9685
 0.30000    1.80     1.80   0.16529  -10.9683
 0.35000    1.80     1.80   0.16537  -10.9683
 0.40000    1.80     1.80   0.16531  -10.9681
 0.45000    1.80     1.80   0.16525  -10.9681
 0.50000    1.80     1.80   0.16515  -10.9681
 0.55000    1.80     1.80   0.16509  -10.9677
 0.60000    1.80     1.80   0.16517  -10.9676
 0.65000    1.80     1.80   0.16512  -10.9677
 0.70000    1.80     1.80   0.16517  -10.9675
 0.75000    1.80     1.80   0.16517  -10.9676
 0.80000    1.80     1.80   0.16508  -10.9675
 0.85000    1.80     1.80   0.16504  -10.9674
 0.90000    1.80     1.80   0.16503  -10.9673
 0.95000    1.80     1.80   0.16501  -10.9670
 1.00000    1.80     1.80   0.16499  -10.9671
 1.05000    1.80     1.80   0.16495  -10.9672
 1.10000    1.80     1.80   0.16488  -10.9671
 1.15000    1.80     1.80   0.16485  -10.9671
 1.20000    1.80     1.80   0.16478  -10.9667
 1.25000    1.80     1.80   0.16465  -10.9668
 1.30000    1.80     1.80   0.16454  -10.9665
 1.35000    1.80     1.80   0.16442  -10.9666
 1.40000    1.80     1.80   0.16430  -10.9661
 1.45000    1.80     1.80   0.16402  -10.9663
 1.50000    1.80     1.80   0.16362  -10.9659
 1.55000    1.80     1.80   0.16322  -10.9659
 1.60000    1.80     1.80   0.16280  -10.9660
 1.65000    1.80     1.80   0.16252  -10.9662
 1.70000    1.80     1.80   0.16211  -10.9663
 1.75000    1.80     1.80   0.16194  -10.9668
 1.80000    1.80     1.80   0.16180  -10.9671
 1.85000    1.80     1.80   0.16176  -10.9675
 1.90000    1.80     1.80   0.16173  -10.9674
 1.95000    1.80     1.80   0.16195  -10.9679
 2.00000    1.80     1.80   0.16212  -10.9683
 2.05000    1.80     1.80   0.16239  -10.9682
 2.10000    1.80     1.80   0.16261  -10.9686
 2.15000    1.80     1.80   0.16289  -10.9686
 2.20000    1.80     1.80   0.16317  -10.9686
 2.25000    1.80     1.80   0.16337  -10.9686
 2.30000    1.80     1.80   0.16356  -10.9685
 2.35000    1.80     1.80   0.16376  -10.9686
 2.40000    1.80     1.80   0.16391  -10.9680
 2.45000    1.80     1.80   0.16398  -10.9682
 2.50000    1.80     1.80   0.16404  -10.9681
 2.55000    1.80     1.80   0.16424  -10.9679
 2.60000    1.80     1.80   0.16430  -10.9677
 2.65000    1.80     1.80   0.16429  -10.9679
 2.70000    1.80     1.80   0.16427  -10.9679
 2.75000    1.80     1.80   0.16427  -10.9679
 2.80000    1.80     1.80   0.16425  -10.9677
 2.85000    1.80     1.80   0.16431  -10.9678
 2.90000    1.80     1.80   0.16430  -10.9678
 2.95000    1.80     1.80   0.16433  -10.9678
 3.00000    1.80     1.80   0.16436  -10.9681
 3.05000    1.80     1.80   0.16433  -10.9673
 3.10000    1.80     1.80   0.16435  -10.9674
 3.15000    1.80     1.80   0.16437  -10.9675
 3.20000    1.80     1.80   0.16434  -10.9672
 3.25000    1.80     1.80   0.16438  -10.9673
 3.30000    1.80     1.80   0.16438  -10.9674
 3.35000    1.80     1.80   0.16432  -10.9673
 3.40000    1.80     1.80   0.16432  -10.9674
 3.45000    1.80     1.80   0.16426  -10.9673
 3.50000    1.80     1.80   0.16427  -10.9671
 3.55000    1.80     1.80   0.16425  -10.9668
 3.60000    1.80     1.80   0.16430  -10.9669
 3.65000    1.80     1.80   0.16433  -10.9671
 3.70000    1.80     1.80   0.16431  -10.9669
 3.75000    1.80     1.80   0.16426  -10.9670
 3.80000    1.80     1.80   0.16426  -10.9671
 3.85000    1.80     1.80   0.16424  -10.9668
 3.90000    1.80     1.80   0.16428  -10.9667
 3.95000    1.80     1.80   0.16431  -10.9669
 4.00000    1.80     1.80   0.16428  -10.9668
 4.00000    1.80     1.80   0.16431  -10.9665
 3.95000    1.80     1.80   0.16423  -10.9669
 3.90000    1.80     1.80   0.16432  -10.9668
 3.85000    1.80     1.80   0.16433  -10.9667
 3.80000    1.80     1.80   0.16435  -10.9665
 3.75000    1.80     1.80   0.16432  -10.9666
 3.70000    1.80     1.80   0.16429  -10.9668
 3.65000    1.80     1.80   0.16427  -10.9667
 3.60000    1.80     1.80   0.16434  -10.9665
 3.55000    1.80     1.80   0.16425  -10.9665
 3.50000    1.80     1.80   0.16428  -10.9666
 3.45000    1.80     1.80   0.16424  -10.9665
 3.40000    1.80     1.80   0.16429  -10.9664
 3.35000    1.80     1.80   0.16432  -10.9666
 3.30000    1.80     1.80   0.16430  -10.9664
 3.25000    1.80     1.80   0.16420  -10.9665
 3.20000    1.80     1.80   0.16423  -10.9665
 3.15000    1.80     1.80   0.16417  -10.9666
 3.10000    1.80     1.80   0.16417  -10.9665
 3.05000    1.80     1.80   0.16418  -10.9663
 3.00000    1.80     1.80   0.16420  -10.9666
 2.95000    1.80     1.80   0.16413  -10.9666
 2.90000    1.80     1.80   0.16414  -10.9662
 2.85000    1.80     1.80   0.16412  -10.9664
 2.80000    1.80     1.80   0.16408  -10.9664
 2.75000    1.80     1.80   0.16399  -10.9663
 2.70000    1.80     1.80   0.16396  -10.9664
 2.65000    1.80     1.80   0.16388  -10.9665
 2.60000    1.80     1.80   0.16382  -10.9664
 2.55000    1.80     1.80   0.16384  -10.9665
 2.50000    1.80     1.80   0.16367  -10.9666
 2.45000    1.80     1.80   0.16361  -10.9668
 2.40000    1.80     1.80   0.16347  -10.9664
 2.35000    1.80     1.80   0.16336  -10.9664
 2.30000    1.80     1.80   0.16315  -10.9665
 2.25000    1.80     1.80   0.16297  -10.9664
 2.20000    1.80     1.80   0.16276  -10.9663
 2.15000    1.80     1.80   0.16249  -10.9662
 2.10000    1.80     1.80   0.16224  -10.9665
 2.05000    1.80     1.80   0.16199  -10.9663
 2.00000    1.80     1.80   0.16176  -10.9663
 1.95000    1.80     1.80   0.16152  -10.9657
 1.90000    1.80     1.80   0.16126  -10.9650
 1.85000    1.80     1.80   0.16129  -10.9645
 1.80000    1.80     1.80   0.16133  -10.9645
 1.75000    1.80     1.80   0.16144  -10.9645
 1.70000    1.80     1.80   0.16171  -10.9640
 1.65000    1.80     1.80   0.16194  -10.9636
 1.60000    1.80     1.80   0.16235  -10.9634
 1.55000    1.80     1.80   0.16268  -10.9634
 1.50000    1.80     1.80   0.16312  -10.9631
 1.45000    1.80     1.80   0.16344  -10.9633
 1.40000    1.80     1.80   0.16362  -10.9631
 1.35000    1.80     1.80   0.16376  -10.9633
 1.30000    1.80     1.80   0.16389  -10.9637
 1.25000    1.80     1.80   0.16400  -10.9635
 1.20000    1.80     1.80   0.16413  -10.9635
 1.15000    1.80     1.80   0.16418  -10.9635
 1.10000    1.80     1.80   0.16413  -10.9635
 1.05000    1.80     1.80   0.16423  -10.9638
 1.00000    1.80     1.80   0.16427  -10.9639
 0.95000    1.80     1.80   0.16432  -10.9637
 0.90000    1.80     1.80   0.16435  -10.9637
 0.85000    1.80     1.80   0.16434  -10.9636
 0.80000    1.80     1.80   0.16436  -10.9637
 0.75000    1.80     1.80   0.16438  -10.9635
 0.70000    1.80     1.80   0.16435  -10.9639
 0.65000    1.80     1.80   0.16438  -10.9640
 0.60000    1.80     1.80   0.16436  -10.9639
 0.55000    1.80     1.80   0.16439  -10.9639
 0.50000    1.80     1.80   0.16434  -10.9641
 0.45000    1.80     1.80   0.16428  -10.9641
 0.40000    1.80     1.80   0.16435  -10.9639
 0.35000    1.80     1.80   0.16435  -10.9639
 0.30000    1.80     1.80   0.16428  -10.9640
 0.25000    1.80     1.80   0.16442  -10.9638
 0.20000    1.80     1.80   0.16439  -10.9643
 0.15000    1.80     1.80   0.16445  -10.9644
 0.10000    1.80     1.80   0.16450  -10.9646
 0.05000    1.80     1.80   0.16450  -10.9645
 -0.00000    1.80     1.80   0.16447  -10.9651
