 Field[T] Tsmpl[K] Tcntr[K] Signal   Mirror[MM]
 0.00000    1.78     1.78   0.52869  -10.9555
 0.05000    1.78     1.78   0.52854  -10.9552
 0.10000    1.78     1.78   0.52727  -10.9542
 0.15000    1.78     1.78   0.52831  -10.9548
 0.20000    1.78     1.78   0.52827  -10.9546
 0.25000    1.78     1.78   0.52826  -10.9548
 0.30000    1.78     1.78   0.52818  -10.9547
 0.35000    1.78     1.78   0.52797  -10.9547
 0.40000    1.78     1.78   0.52769  -10.9545
 0.45000    1.78     1.78   0.52769  -10.9546
 0.50000    1.78     1.78   0.52760  -10.9546
 0.55000    1.78     1.78   0.52738  -10.9547
 0.60000    1.78     1.78   0.52708  -10.9550
 0.65000    1.78     1.78   0.52696  -10.9547
 0.70000    1.78     1.78   0.52669  -10.9544
 0.75000    1.78     1.78   0.52644  -10.9545
 0.80000    1.78     1.78   0.52630  -10.9546
 0.85000    1.78     1.78   0.52585  -10.9546
 0.90000    1.78     1.78   0.52553  -10.9546
 0.95000    1.78     1.78   0.52507  -10.9545
 1.00000    1.78     1.78   0.52465  -10.9544
 1.05000    1.78     1.78   0.52407  -10.9543
 1.10000    1.78     1.78   0.52282  -10.9541
 1.15000    1.78     1.78   0.52146  -10.9545
 1.20000    1.78     1.78   0.52026  -10.9546
 1.25000    1.78     1.78   0.51877  -10.9549
 1.30000    1.78     1.78   0.51787  -10.9552
 1.35000    1.78     1.78   0.51786  -10.9560
 1.40000    1.78     1.78   0.51800  -10.9566
 1.45000    1.78     1.78   0.51838  -10.9573
 1.50000    1.78     1.78   0.51906  -10.9575
 1.55000    1.78     1.78   0.51986  -10.9574
 1.60000    1.78     1.78   0.52086  -10.9578
 1.65000    1.78     1.78   0.52150  -10.9576
 1.70000    1.78     1.78   0.52239  -10.9576
 1.75000    1.78     1.78   0.52308  -10.9578
 1.80000    1.78     1.78   0.52379  -10.9580
 1.85000    1.78     1.78   0.52427  -10.9578
 1.90000    1.78     1.78   0.52465  -10.9576
 1.95000    1.78     1.78   0.52500  -10.9577
 2.00000    1.78     1.78   0.52514  -10.9576
 2.05000    1.78     1.78   0.52554  -10.9574
 2.10000    1.78     1.78   0.52581  -10.9572
 2.15000    1.78     1.78   0.52582  -10.9573
 2.20000    1.78     1.78   0.52626  -10.9571
 2.25000    1.78     1.78   0.52603  -10.9572
 2.30000    1.78     1.78   0.52618  -10.9570
 2.35000    1.78     1.78   0.52630  -10.9571
 2.40000    1.78     1.78   0.52633  -10.9568
 2.45000    1.78     1.78   0.52622  -10.9569
 2.50000    1.78     1.78   0.52638  -10.9569
 2.55000    1.78     1.78   0.52622  -10.9569
 2.60000    1.78     1.78   0.52641  -10.9567
 2.65000    1.78     1.78   0.52637  -10.9565
 2.70000    1.78     1.78   0.52638  -10.9564
 2.75000    1.78     1.78   0.52617  -10.9566
 2.80000    1.78     1.78   0.52639  -10.9562
 2.85000    1.78     1.78   0.52611  -10.9563
 2.90000    1.78     1.78   0.52632  -10.9563
 2.95000    1.78     1.78   0.52600  -10.9566
 3.00000    1.78     1.78   0.52620  -10.9555
 3.05000    1.78     1.78   0.52632  -10.9556
 3.10000    1.78     1.78   0.52593  -10.9560
 3.15000    1.78     1.78   0.52602  -10.9560
 3.20000    1.78     1.78   0.52601  -10.9564
 3.25000    1.78     1.78   0.52612  -10.9560
 3.30000    1.78     1.78   0.52606  -10.9560
 3.35000    1.78     1.78   0.52606  -10.9560
 3.40000    1.78     1.78   0.52608  -10.9558
 3.45000    1.78     1.78   0.52573  -10.9557
 3.50000    1.78     1.78   0.52585  -10.9557
 3.55000    1.78     1.78   0.52566  -10.9556
 3.60000    1.78     1.78   0.52562  -10.9556
 3.65000    1.78     1.78   0.52571  -10.9554
 3.70000    1.78     1.78   0.52564  -10.9553
 3.75000    1.78     1.78   0.52566  -10.9553
 3.80000    1.78     1.78   0.52566  -10.9552
 3.85000    1.78     1.78   0.52565  -10.9551
 3.90000    1.78     1.78   0.52554  -10.9550
 3.95000    1.78     1.78   0.52532  -10.9549
 4.00000    1.78     1.78   0.52538  -10.9549
 4.00000    1.78     1.78   0.52554  -10.9551
 3.95000    1.78     1.78   0.52572  -10.9551
 3.90000    1.78     1.78   0.52526  -10.9548
 3.85000    1.78     1.78   0.52568  -10.9550
 3.80000    1.78     1.78   0.52562  -10.9546
 3.75000    1.78     1.78   0.52565  -10.9548
 3.70000    1.78     1.78   0.52545  -10.9548
 3.65000    1.78     1.78   0.52585  -10.9550
 3.60000    1.78     1.78   0.52570  -10.9549
 3.55000    1.78     1.78   0.52583  -10.9546
 3.50000    1.78     1.78   0.52569  -10.9545
 3.45000    1.78     1.78   0.52562  -10.9545
 3.40000    1.78     1.78   0.52582  -10.9546
 3.35000    1.78     1.78   0.52578  -10.9543
 3.30000    1.78     1.78   0.52595  -10.9543
 3.25000    1.78     1.78   0.52600  -10.9544
 3.20000    1.78     1.78   0.52614  -10.9544
 3.15000    1.78     1.78   0.52626  -10.9541
 3.10000    1.78     1.78   0.52600  -10.9542
 3.05000    1.78     1.78   0.52596  -10.9542
 3.00000    1.78     1.78   0.52607  -10.9540
 2.95000    1.78     1.78   0.52621  -10.9544
 2.90000    1.78     1.78   0.52614  -10.9538
 2.85000    1.78     1.78   0.52614  -10.9540
 2.80000    1.78     1.78   0.52594  -10.9540
 2.75000    1.78     1.78   0.52599  -10.9542
 2.70000    1.78     1.78   0.52614  -10.9544
 2.65000    1.78     1.78   0.52598  -10.9541
 2.60000    1.78     1.78   0.52610  -10.9541
 2.55000    1.78     1.78   0.52603  -10.9539
 2.50000    1.78     1.78   0.52614  -10.9541
 2.45000    1.78     1.78   0.52603  -10.9544
 2.40000    1.78     1.78   0.52588  -10.9542
 2.35000    1.78     1.78   0.52538  -10.9536
 2.30000    1.78     1.78   0.52558  -10.9535
 2.25000    1.78     1.78   0.52558  -10.9534
 2.20000    1.78     1.78   0.52570  -10.9539
 2.15000    1.78     1.78   0.52559  -10.9542
 2.10000    1.78     1.78   0.52538  -10.9540
 2.05000    1.78     1.78   0.52523  -10.9541
 2.00000    1.78     1.78   0.52495  -10.9543
 1.95000    1.78     1.78   0.52458  -10.9540
 1.90000    1.78     1.78   0.52452  -10.9545
 1.85000    1.78     1.78   0.52413  -10.9544
 1.80000    1.78     1.78   0.52364  -10.9548
 1.75000    1.78     1.78   0.52329  -10.9547
 1.70000    1.78     1.78   0.52246  -10.9549
 1.65000    1.78     1.78   0.52158  -10.9545
 1.60000    1.78     1.78   0.52059  -10.9546
 1.55000    1.78     1.78   0.51990  -10.9544
 1.50000    1.78     1.78   0.51894  -10.9542
 1.45000    1.78     1.78   0.51817  -10.9539
 1.40000    1.78     1.78   0.51771  -10.9532
 1.35000    1.78     1.78   0.51754  -10.9525
 1.30000    1.78     1.78   0.51785  -10.9522
 1.25000    1.78     1.78   0.51872  -10.9518
 1.20000    1.78     1.78   0.51986  -10.9514
 1.15000    1.78     1.78   0.52110  -10.9510
 1.10000    1.78     1.78   0.52240  -10.9511
 1.05000    1.78     1.78   0.52335  -10.9512
 1.00000    1.78     1.78   0.52427  -10.9514
 0.95000    1.78     1.78   0.52482  -10.9516
 0.90000    1.78     1.78   0.52522  -10.9515
 0.85000    1.78     1.78   0.52553  -10.9515
 0.80000    1.78     1.78   0.52572  -10.9515
 0.75000    1.78     1.78   0.52605  -10.9517
 0.70000    1.78     1.78   0.52650  -10.9519
 0.65000    1.78     1.78   0.52666  -10.9519
 0.60000    1.78     1.78   0.52702  -10.9521
 0.55000    1.78     1.78   0.52722  -10.9518
 0.50000    1.78     1.78   0.52744  -10.9520
 0.45000    1.78     1.78   0.52734  -10.9521
 0.40000    1.78     1.78   0.52776  -10.9520
 0.35000    1.78     1.78   0.52787  -10.9524
 0.30000    1.78     1.78   0.52806  -10.9526
 0.25000    1.78     1.78   0.52811  -10.9526
 0.20000    1.78     1.78   0.52813  -10.9525
 0.15000    1.78     1.78   0.52826  -10.9530
 0.10000    1.78     1.78   0.52842  -10.9533
 0.05000    1.78     1.78   0.52838  -10.9534
 -0.00000    1.78     1.78   0.52836  -10.9536
