 Field[T] Tsmpl[K] Tcntr[K] Signal   Mirror[MM]
 0.00000    1.73     1.73   0.76287  -11.0110
 0.05000    1.73     1.73   0.76076  -11.0110
 0.10000    1.73     1.73   0.75760  -11.0110
 0.15000    1.73     1.73   0.75437  -11.0110
 0.20000    1.73     1.73   0.75097  -11.0088
 0.25000    1.73     1.73   0.74743  -11.0093
 0.30000    1.73     1.73   0.74387  -11.0093
 0.35000    1.73     1.73   0.73994  -11.0099
 0.40000    1.73     1.73   0.73555  -11.0115
 0.45000    1.73     1.73   0.73060  -11.0132
 0.50000    1.73     1.73   0.72428  -11.0170
 0.55000    1.73     1.73   0.71513  -11.0203
 0.60000    1.73     1.73   0.69859  -11.0165
 0.65000    1.73     1.73   0.68968  -10.9863
 0.70000    1.73     1.73   0.68704  -10.9621
 0.75000    1.73     1.73   0.68697  -10.9412
 0.80000    1.73     1.73   0.68867  -10.9241
 0.85000    1.73     1.73   0.69120  -10.9103
 0.90000    1.73     1.73   0.69456  -10.8999
 0.95000    1.73     1.73   0.69894  -10.8905
 1.00000    1.73     1.73   0.70318  -10.8850
 1.05000    1.73     1.73   0.70835  -10.8806
 1.10000    1.73     1.73   0.71192  -10.8796
 1.15000    1.73     1.73   0.71427  -10.8812
 1.20000    1.73     1.73   0.71548  -10.8818
 1.25000    1.73     1.73   0.71692  -10.8823
 1.30000    1.73     1.73   0.71775  -10.8828
 1.35000    1.73     1.73   0.71931  -10.8834
 1.40000    1.73     1.73   0.71910  -10.8828
 1.45000    1.73     1.73   0.71961  -10.8840
 1.50000    1.73     1.73   0.72085  -10.8840
 1.55000    1.73     1.73   0.72143  -10.8872
 1.60000    1.73     1.73   0.72206  -10.8867
 1.65000    1.73     1.73   0.72200  -10.8850
 1.70000    1.73     1.73   0.72257  -10.8862
 1.75000    1.73     1.73   0.72276  -10.8872
 1.80000    1.73     1.73   0.72365  -10.8850
 1.85000    1.73     1.73   0.72386  -10.8834
 1.90000    1.73     1.73   0.72465  -10.8828
 1.95000    1.73     1.73   0.72502  -10.8856
 2.00000    1.73     1.73   0.72547  -10.8862
 2.05000    1.73     1.73   0.72582  -10.8850
 2.10000    1.73     1.73   0.72606  -10.8867
 2.15000    1.73     1.73   0.72582  -10.8872
 2.20000    1.73     1.73   0.72624  -10.8889
 2.25000    1.73     1.73   0.72589  -10.8895
 2.30000    1.73     1.73   0.72708  -10.8889
 2.35000    1.73     1.73   0.72752  -10.8889
 2.40000    1.73     1.73   0.72794  -10.8911
 2.45000    1.73     1.73   0.72803  -10.8895
 2.50000    1.73     1.73   0.72775  -10.8895
 2.55000    1.73     1.73   0.72768  -10.8911
 2.60000    1.73     1.73   0.72813  -10.8911
 2.65000    1.73     1.73   0.72784  -10.8917
 2.70000    1.73     1.73   0.72810  -10.8917
 2.75000    1.73     1.73   0.72777  -10.8922
 2.80000    1.73     1.73   0.72803  -10.8905
 2.85000    1.73     1.73   0.72784  -10.8911
 2.90000    1.73     1.73   0.72786  -10.8927
 2.95000    1.73     1.73   0.72783  -10.8922
 3.00000    1.73     1.73   0.72758  -10.8917
 3.00000    1.73     1.73   0.72738  -10.8911
 2.95000    1.73     1.73   0.72728  -10.8922
 2.90000    1.73     1.73   0.72698  -10.8905
 2.85000    1.73     1.73   0.72742  -10.8900
 2.80000    1.73     1.73   0.72732  -10.8900
 2.75000    1.73     1.73   0.72745  -10.8878
 2.70000    1.73     1.73   0.72739  -10.8878
 2.65000    1.73     1.73   0.72749  -10.8878
 2.60000    1.73     1.73   0.72706  -10.8872
 2.55000    1.73     1.73   0.72702  -10.8872
 2.50000    1.73     1.73   0.72675  -10.8862
 2.45000    1.73     1.73   0.72653  -10.8856
 2.40000    1.73     1.73   0.72659  -10.8862
 2.35000    1.73     1.73   0.72717  -10.8845
 2.30000    1.73     1.73   0.72670  -10.8840
 2.25000    1.73     1.73   0.72623  -10.8840
 2.20000    1.73     1.73   0.72593  -10.8834
 2.15000    1.73     1.73   0.72575  -10.8828
 2.10000    1.73     1.73   0.72554  -10.8828
 2.05000    1.73     1.73   0.72535  -10.8806
 2.00000    1.73     1.73   0.72456  -10.8812
 1.95000    1.73     1.73   0.72458  -10.8801
 1.90000    1.73     1.73   0.72375  -10.8801
 1.85000    1.73     1.73   0.72323  -10.8790
 1.80000    1.73     1.73   0.72211  -10.8785
 1.75000    1.73     1.73   0.72178  -10.8768
 1.70000    1.73     1.73   0.72080  -10.8773
 1.65000    1.73     1.73   0.72044  -10.8768
 1.60000    1.73     1.73   0.71931  -10.8768
 1.55000    1.73     1.73   0.71826  -10.8763
 1.50000    1.73     1.73   0.71729  -10.8746
 1.45000    1.73     1.73   0.71609  -10.8741
 1.40000    1.73     1.73   0.71445  -10.8746
 1.35000    1.73     1.73   0.71292  -10.8751
 1.30000    1.73     1.73   0.71027  -10.8763
 1.25000    1.73     1.73   0.70908  -10.8746
 1.20000    1.73     1.73   0.70750  -10.8763
 1.15000    1.73     1.73   0.70540  -10.8735
 1.10000    1.73     1.73   0.70274  -10.8730
 1.05000    1.73     1.73   0.69903  -10.8724
 1.00000    1.73     1.73   0.69406  -10.8757
 0.95000    1.73     1.73   0.68818  -10.8812
 0.90000    1.73     1.73   0.68291  -10.8905
 0.85000    1.73     1.73   0.67868  -10.9016
 0.80000    1.73     1.73   0.67511  -10.9153
 0.75000    1.73     1.73   0.67241  -10.9313
 0.70000    1.73     1.73   0.67089  -10.9505
 0.65000    1.73     1.73   0.67143  -10.9753
 0.60000    1.73     1.73   0.67691  -11.0050
 0.55000    1.73     1.73   0.69184  -11.0137
 0.50000    1.73     1.73   0.69954  -11.0083
 0.45000    1.73     1.73   0.70400  -11.0050
 0.40000    1.73     1.73   0.70696  -11.0033
 0.35000    1.73     1.73   0.70889  -11.0017
 0.30000    1.73     1.73   0.71063  -11.0017
 0.25000    1.73     1.73   0.71170  -11.0011
 0.20000    1.73     1.73   0.71273  -11.0011
 0.15000    1.73     1.73   0.71352  -11.0022
 0.10000    1.73     1.73   0.71392  -11.0022
 0.05000    1.73     1.73   0.71464  -11.0022
 -0.00000    1.73     1.73   0.71485  -11.0033
