 Field[T] Tsmpl[K] Tcntr[K] Signal   Mirror[MM]
 0.00000    1.78     1.78   0.23421  -10.9655
 0.05000    1.78     1.78   0.23348  -10.9655
 0.10000    1.78     1.78   0.23473  -10.9656
 0.15000    1.78     1.78   0.23304  -10.9656
 0.20000    1.78     1.78   0.23319  -10.9658
 0.25000    1.78     1.78   0.23390  -10.9658
 0.30000    1.78     1.78   0.23494  -10.9658
 0.35000    1.78     1.78   0.23475  -10.9655
 0.40000    1.78     1.78   0.23434  -10.9658
 0.45000    1.78     1.78   0.23421  -10.9656
 0.50000    1.78     1.78   0.23397  -10.9658
 0.55000    1.78     1.78   0.23444  -10.9660
 0.60000    1.78     1.78   0.23470  -10.9656
 0.65000    1.78     1.78   0.23423  -10.9655
 0.70000    1.78     1.78   0.23431  -10.9655
 0.75000    1.78     1.78   0.23345  -10.9654
 0.80000    1.78     1.78   0.23317  -10.9654
 0.85000    1.78     1.78   0.23319  -10.9656
 0.90000    1.78     1.78   0.23405  -10.9656
 0.95000    1.78     1.78   0.23286  -10.9654
 1.00000    1.78     1.78   0.23223  -10.9650
 1.05000    1.78     1.78   0.23226  -10.9650
 1.10000    1.78     1.78   0.23127  -10.9648
 1.15000    1.78     1.78   0.23041  -10.9645
 1.20000    1.78     1.78   0.22836  -10.9646
 1.25000    1.78     1.78   0.22758  -10.9657
 1.30000    1.78     1.78   0.22630  -10.9668
 1.35000    1.78     1.78   0.22786  -10.9678
 1.40000    1.78     1.78   0.22854  -10.9686
 1.45000    1.78     1.78   0.22924  -10.9690
 1.50000    1.78     1.78   0.22994  -10.9697
 1.55000    1.78     1.78   0.23026  -10.9702
 1.60000    1.78     1.78   0.23096  -10.9708
 1.65000    1.78     1.78   0.23252  -10.9706
 1.70000    1.78     1.78   0.23330  -10.9706
 1.75000    1.78     1.78   0.23265  -10.9708
 1.80000    1.78     1.78   0.23265  -10.9706
 1.85000    1.78     1.78   0.23379  -10.9703
 1.90000    1.78     1.78   0.23382  -10.9706
 1.95000    1.78     1.78   0.23400  -10.9705
 2.00000    1.78     1.78   0.23369  -10.9701
 2.05000    1.78     1.78   0.23457  -10.9702
 2.10000    1.78     1.78   0.23579  -10.9700
 2.15000    1.78     1.78   0.23564  -10.9701
 2.20000    1.78     1.78   0.23603  -10.9700
 2.25000    1.78     1.78   0.23449  -10.9700
 2.30000    1.78     1.78   0.23621  -10.9698
 2.35000    1.78     1.78   0.23639  -10.9699
 2.40000    1.78     1.78   0.23572  -10.9700
 2.45000    1.78     1.78   0.23603  -10.9699
 2.50000    1.78     1.78   0.23569  -10.9700
 2.55000    1.78     1.78   0.23764  -10.9700
 2.60000    1.78     1.78   0.23561  -10.9700
 2.65000    1.78     1.78   0.23650  -10.9699
 2.70000    1.78     1.78   0.23694  -10.9701
 2.75000    1.78     1.78   0.23728  -10.9699
 2.80000    1.78     1.78   0.23725  -10.9699
 2.85000    1.78     1.78   0.23673  -10.9699
 2.90000    1.78     1.78   0.23800  -10.9697
 2.95000    1.78     1.78   0.23774  -10.9698
 3.00000    1.78     1.78   0.23741  -10.9697
 3.05000    1.78     1.78   0.23839  -10.9699
 3.10000    1.78     1.78   0.23642  -10.9702
 3.15000    1.78     1.78   0.23764  -10.9700
 3.20000    1.78     1.78   0.23808  -10.9698
 3.25000    1.78     1.78   0.23806  -10.9699
 3.30000    1.78     1.78   0.23813  -10.9698
 3.35000    1.78     1.78   0.23821  -10.9702
 3.40000    1.78     1.78   0.23795  -10.9702
 3.45000    1.78     1.78   0.23845  -10.9699
 3.50000    1.78     1.78   0.23782  -10.9702
 3.55000    1.78     1.78   0.23837  -10.9699
 3.60000    1.78     1.78   0.23761  -10.9702
 3.65000    1.78     1.78   0.23860  -10.9704
 3.70000    1.78     1.78   0.23941  -10.9702
 3.75000    1.78     1.78   0.23860  -10.9702
 3.80000    1.78     1.78   0.23813  -10.9704
 3.85000    1.78     1.78   0.23806  -10.9704
 3.90000    1.78     1.78   0.23837  -10.9704
 3.95000    1.78     1.78   0.23790  -10.9702
 4.00000    1.78     1.78   0.23881  -10.9705
 4.00000    1.78     1.78   0.24027  -10.9704
 3.95000    1.78     1.78   0.23834  -10.9702
 3.90000    1.78     1.78   0.23910  -10.9706
 3.85000    1.78     1.78   0.23941  -10.9705
 3.80000    1.78     1.78   0.23884  -10.9706
 3.75000    1.78     1.78   0.23910  -10.9708
 3.70000    1.78     1.78   0.23876  -10.9710
 3.65000    1.78     1.78   0.23821  -10.9710
 3.60000    1.78     1.78   0.23709  -10.9711
 3.55000    1.78     1.78   0.23806  -10.9711
 3.50000    1.78     1.78   0.23720  -10.9716
 3.45000    1.78     1.78   0.23665  -10.9713
 3.40000    1.78     1.78   0.23668  -10.9715
 3.35000    1.78     1.78   0.23647  -10.9717
 3.30000    1.78     1.78   0.23764  -10.9716
 3.25000    1.78     1.78   0.23808  -10.9715
 3.20000    1.78     1.78   0.23899  -10.9715
 3.15000    1.78     1.78   0.23811  -10.9716
 3.10000    1.78     1.78   0.23795  -10.9718
 3.05000    1.78     1.78   0.23699  -10.9721
 3.00000    1.78     1.78   0.23860  -10.9717
 2.95000    1.78     1.78   0.23829  -10.9719
 2.90000    1.78     1.78   0.23855  -10.9718
 2.85000    1.78     1.78   0.23834  -10.9722
 2.80000    1.78     1.78   0.23754  -10.9724
 2.75000    1.78     1.78   0.23793  -10.9721
 2.70000    1.78     1.78   0.23774  -10.9722
 2.65000    1.78     1.78   0.23780  -10.9722
 2.60000    1.78     1.78   0.23769  -10.9723
 2.55000    1.78     1.78   0.23720  -10.9725
 2.50000    1.78     1.78   0.23696  -10.9728
 2.45000    1.78     1.78   0.23678  -10.9726
 2.40000    1.78     1.78   0.23764  -10.9725
 2.35000    1.78     1.78   0.23673  -10.9727
 2.30000    1.78     1.78   0.23668  -10.9728
 2.25000    1.78     1.78   0.23673  -10.9729
 2.20000    1.78     1.78   0.23683  -10.9731
 2.15000    1.78     1.78   0.23756  -10.9729
 2.10000    1.78     1.78   0.23733  -10.9727
 2.05000    1.78     1.78   0.23707  -10.9727
 2.00000    1.78     1.78   0.23650  -10.9731
 1.95000    1.78     1.78   0.23618  -10.9733
 1.90000    1.78     1.78   0.23582  -10.9730
 1.85000    1.78     1.78   0.23631  -10.9729
 1.80000    1.78     1.78   0.23605  -10.9738
 1.75000    1.78     1.78   0.23483  -10.9735
 1.70000    1.78     1.78   0.23421  -10.9734
 1.65000    1.78     1.78   0.23384  -10.9735
 1.60000    1.78     1.78   0.23234  -10.9733
 1.55000    1.78     1.78   0.23088  -10.9733
 1.50000    1.78     1.78   0.23039  -10.9729
 1.45000    1.78     1.78   0.22953  -10.9720
 1.40000    1.78     1.78   0.22867  -10.9714
 1.35000    1.78     1.78   0.22823  -10.9707
 1.30000    1.78     1.78   0.22859  -10.9696
 1.25000    1.78     1.78   0.22867  -10.9682
 1.20000    1.78     1.78   0.23096  -10.9668
 1.15000    1.78     1.78   0.23182  -10.9667
 1.10000    1.78     1.78   0.23319  -10.9668
 1.05000    1.78     1.78   0.23431  -10.9672
 1.00000    1.78     1.78   0.23397  -10.9675
 0.95000    1.78     1.78   0.23366  -10.9675
 0.90000    1.78     1.78   0.23405  -10.9673
 0.85000    1.78     1.78   0.23553  -10.9674
 0.80000    1.78     1.78   0.23535  -10.9674
 0.75000    1.78     1.78   0.23587  -10.9671
 0.70000    1.78     1.78   0.23572  -10.9674
 0.65000    1.78     1.78   0.23592  -10.9674
 0.60000    1.78     1.78   0.23574  -10.9671
 0.55000    1.78     1.78   0.23579  -10.9670
 0.50000    1.78     1.78   0.23574  -10.9670
 0.45000    1.78     1.78   0.23527  -10.9668
 0.40000    1.78     1.78   0.23533  -10.9665
 0.35000    1.78     1.78   0.23512  -10.9662
 0.30000    1.78     1.78   0.23616  -10.9662
 0.25000    1.78     1.78   0.23561  -10.9660
 0.20000    1.78     1.78   0.23553  -10.9661
 0.15000    1.78     1.78   0.23533  -10.9662
 0.10000    1.78     1.78   0.23504  -10.9662
 0.05000    1.78     1.78   0.23512  -10.9657
 -0.00000    1.78     1.78   0.23533  -10.9660
