 Field[T] Tsmpl[K] Tcntr[K] Signal   Mirror[MM]
 0.00000    1.73     1.73   0.26818  -10.8593
 0.05000    1.73     1.73   0.26773  -10.9393
 0.10000    1.73     1.73   0.27143  -10.9673
 0.15000    1.73     1.73   0.26832  -10.9915
 0.20000    1.73     1.73   0.27010  -11.0175
 0.25000    1.73     1.73   0.26640  -11.0603
 0.30000    1.73     1.73   0.26625  -11.1113
 0.35000    1.73     1.73   0.26980  -11.1550
 0.40000    1.73     1.73   0.27513  -11.1957
 0.45000    1.73     1.73   0.28194  -11.2263
 0.50000    1.73     1.73   0.28312  -11.2511
 0.55000    1.73     1.73   0.28919  -11.2683
 0.60000    1.73     1.73   0.29274  -11.2778
 0.65000    1.73     1.73   0.29911  -11.2860
 0.70000    1.73     1.73   0.29985  -11.2907
 0.75000    1.73     1.73   0.30029  -11.3060
 0.80000    1.73     1.73   0.30148  -11.3004
 0.85000    1.73     1.73   0.30562  -11.3003
 0.90000    1.73     1.73   0.30932  -11.3144
 0.95000    1.73     1.73   0.31169  -11.3118
 1.00000    1.73     1.73   0.31687  -11.3093
 1.05000    1.73     1.73   0.31568  -11.3102
 1.10000    1.73     1.73   0.31036  -11.3114
 1.15000    1.73     1.73   0.31258  -11.2840
 1.20000    1.73     1.73   0.31006  -11.2937
 1.25000    1.73     1.73   0.31184  -11.2883
 1.30000    1.73     1.73   0.31095  -11.2975
 1.35000    1.73     1.73   0.31332  -11.2964
 1.40000    1.73     1.73   0.31924  -11.2995
 1.45000    1.73     1.73   0.31968  -11.3009
 1.50000    1.73     1.73   0.31790  -11.2974
 1.55000    1.73     1.73   0.31820  -11.2943
 1.60000    1.73     1.73   0.31938  -11.2954
 1.65000    1.73     1.73   0.32012  -11.2989
 1.70000    1.73     1.73   0.31864  -11.2986
 1.75000    1.73     1.73   0.31909  -11.2963
 1.80000    1.73     1.73   0.32131  -11.2924
 1.85000    1.73     1.73   0.32146  -11.2956
 1.90000    1.73     1.73   0.31983  -11.2916
 1.95000    1.73     1.73   0.31968  -11.2959
 2.00000    1.73     1.73   0.31909  -11.2935
 2.05000    1.73     1.73   0.32116  -11.2890
 2.10000    1.73     1.73   0.31953  -11.2940
 2.15000    1.73     1.73   0.31953  -11.2961
 2.20000    1.73     1.73   0.32175  -11.2956
 2.25000    1.73     1.73   0.32190  -11.2939
 2.30000    1.73     1.73   0.32264  -11.2950
 2.35000    1.73     1.73   0.32072  -11.2966
 2.40000    1.73     1.73   0.32323  -11.2927
 2.45000    1.73     1.73   0.32131  -11.2874
 2.50000    1.73     1.73   0.32294  -11.2959
 2.55000    1.73     1.73   0.32190  -11.2990
 2.60000    1.73     1.73   0.31924  -11.2947
 2.65000    1.73     1.73   0.32560  -11.2936
 2.70000    1.73     1.73   0.32264  -11.2959
 2.75000    1.73     1.73   0.32027  -11.2965
 2.80000    1.73     1.73   0.32353  -11.2952
 2.85000    1.73     1.73   0.32116  -11.2974
 2.90000    1.73     1.73   0.32249  -11.2923
 2.95000    1.73     1.73   0.31702  -11.2933
 3.00000    1.73     1.73   0.32220  -11.2964
 3.05000    1.73     1.73   0.32264  -11.2982
 3.10000    1.73     1.73   0.31391  -11.2715
 3.15000    1.73     1.73   0.32101  -11.2911
 3.20000    1.73     1.73   0.31953  -11.2963
 3.25000    1.73     1.73   0.32604  -11.3015
 3.30000    1.73     1.73   0.31983  -11.2579
 3.35000    1.73     1.73   0.31568  -11.2627
 3.40000    1.73     1.73   0.32249  -11.2857
 3.45000    1.73     1.73   0.32308  -11.2839
 3.50000    1.73     1.73   0.32264  -11.2860
 3.55000    1.73     1.73   0.31983  -11.2857
 3.60000    1.73     1.73   0.32057  -11.2864
 3.65000    1.73     1.73   0.32220  -11.2881
 3.70000    1.73     1.73   0.32086  -11.2890
 3.75000    1.73     1.73   0.31539  -11.2605
 3.80000    1.73     1.73   0.32101  -11.2636
 3.85000    1.73     1.73   0.32116  -11.2852
 3.90000    1.73     1.73   0.32249  -11.2893
 3.95000    1.73     1.73   0.31953  -11.2907
 4.00000    1.73     1.73   0.32160  -11.2932
 4.00000    1.73     1.73   0.32205  -11.2896
 3.95000    1.73     1.73   0.32456  -11.2864
 3.90000    1.73     1.73   0.32146  -11.2951
 3.85000    1.73     1.73   0.32072  -11.2959
 3.80000    1.73     1.73   0.32205  -11.2962
 3.75000    1.73     1.73   0.32308  -11.2856
 3.70000    1.73     1.73   0.31346  -11.2656
 3.65000    1.73     1.73   0.31761  -11.2928
 3.60000    1.73     1.73   0.31953  -11.2949
 3.55000    1.73     1.73   0.32116  -11.2934
 3.50000    1.73     1.73   0.31924  -11.2936
 3.45000    1.73     1.73   0.32234  -11.3164
 3.40000    1.73     1.73   0.32042  -11.2981
 3.35000    1.73     1.73   0.31983  -11.2946
 3.30000    1.73     1.73   0.32604  -11.3069
 3.25000    1.73     1.73   0.31894  -11.3047
 3.20000    1.73     1.73   0.31776  -11.2937
 3.15000    1.73     1.73   0.32086  -11.2865
 3.10000    1.73     1.73   0.32012  -11.2871
 3.05000    1.73     1.73   0.32146  -11.2949
 3.00000    1.73     1.73   0.31790  -11.2849
 2.95000    1.73     1.73   0.31850  -11.2858
 2.90000    1.73     1.73   0.31376  -11.2825
 2.85000    1.73     1.73   0.31924  -11.3033
 2.80000    1.73     1.73   0.32175  -11.3041
 2.75000    1.73     1.73   0.32264  -11.2931
 2.70000    1.73     1.73   0.30976  -11.2618
 2.65000    1.73     1.73   0.31953  -11.3192
 2.60000    1.73     1.73   0.32057  -11.3045
 2.55000    1.73     1.73   0.31642  -11.2751
 2.50000    1.73     1.73   0.32057  -11.2834
 2.45000    1.73     1.73   0.31998  -11.3105
 2.40000    1.73     1.73   0.32072  -11.3090
 2.35000    1.73     1.73   0.32160  -11.2892
 2.30000    1.73     1.73   0.32249  -11.2722
 2.25000    1.73     1.73   0.31894  -11.3161
 2.20000    1.73     1.73   0.31361  -11.3326
 2.15000    1.73     1.73   0.32279  -11.3112
 2.10000    1.73     1.73   0.32308  -11.3125
 2.05000    1.73     1.73   0.31805  -11.3153
 2.00000    1.73     1.73   0.32160  -11.3104
 1.95000    1.73     1.73   0.32294  -11.3107
 1.90000    1.73     1.73   0.31938  -11.3080
 1.85000    1.73     1.73   0.32101  -11.3014
 1.80000    1.73     1.73   0.31864  -11.3142
 1.75000    1.73     1.73   0.32072  -11.3135
 1.70000    1.73     1.73   0.32116  -11.3163
 1.65000    1.73     1.73   0.31998  -11.3221
 1.60000    1.73     1.73   0.31968  -11.3173
 1.55000    1.73     1.73   0.32027  -11.3179
 1.50000    1.73     1.73   0.32072  -11.3162
 1.45000    1.73     1.73   0.32012  -11.3204
 1.40000    1.73     1.73   0.31953  -11.3250
 1.35000    1.73     1.73   0.31850  -11.3221
 1.30000    1.73     1.73   0.31938  -11.3128
 1.25000    1.73     1.73   0.30784  -11.2865
 1.20000    1.73     1.73   0.31258  -11.2882
 1.15000    1.73     1.73   0.31184  -11.2814
 1.10000    1.73     1.73   0.31554  -11.3213
 1.05000    1.73     1.73   0.31243  -11.3305
 1.00000    1.73     1.73   0.31213  -11.3327
 0.95000    1.73     1.73   0.31346  -11.3250
 0.90000    1.73     1.73   0.31287  -11.3265
 0.85000    1.73     1.73   0.30873  -11.3298
 0.80000    1.73     1.73   0.30680  -11.3207
 0.75000    1.73     1.73   0.30325  -11.3085
 0.70000    1.73     1.73   0.30088  -11.2852
 0.65000    1.73     1.73   0.29733  -11.2867
 0.60000    1.73     1.73   0.29008  -11.2957
 0.55000    1.73     1.73   0.28845  -11.2606
 0.50000    1.73     1.73   0.28697  -11.2698
 0.45000    1.73     1.73   0.28209  -11.1916
 0.40000    1.73     1.73   0.27276  -11.1746
 0.35000    1.73     1.73   0.26744  -11.1236
 0.30000    1.73     1.73   0.27128  -11.0809
 0.25000    1.73     1.73   0.26877  -11.0411
 0.20000    1.73     1.73   0.26655  -10.9988
 0.15000    1.73     1.73   0.26951  -10.9532
 0.10000    1.73     1.73   0.27558  -10.9082
 0.05000    1.73     1.73   0.27439  -10.8810
 -0.00000    1.73     1.73   0.27114  -10.8516
