 Field[T] Tsmpl[K] Tcntr[K] Signal
 0.00000    1.80     1.82   7.95100
 0.05000    1.80     1.82   7.94910
 0.10000    1.80     1.82   7.95130
 0.15000    1.80     1.82   7.95060
 0.20000    1.80     1.82   7.95280
 0.25000    1.80     1.82   7.95400
 0.30000    1.80     1.82   7.95120
 0.35000    1.80     1.82   7.94950
 0.40000    1.80     1.82   7.95880
 0.45000    1.80     1.82   7.95490
 0.50000    1.80     1.82   7.95400
 0.55000    1.80     1.82   7.95270
 0.60000    1.80     1.82   7.95660
 0.65000    1.80     1.82   7.95070
 0.70000    1.80     1.82   7.95130
 0.75000    1.80     1.82   7.94720
 0.80000    1.80     1.82   7.95000
 0.85000    1.80     1.82   7.94770
 0.90000    1.80     1.82   7.94620
 0.95000    1.80     1.82   7.94130
 1.00000    1.80     1.82   7.93830
 1.05000    1.80     1.82   7.93740
 1.10000    1.80     1.82   7.93690
 1.15000    1.80     1.82   7.93180
 1.20000    1.80     1.82   7.92850
 1.25000    1.80     1.83   7.92530
 1.30000    1.80     1.83   7.91680
 1.35000    1.80     1.83   7.90650
 1.40000    1.81     1.83   7.90150
 1.45000    1.81     1.83   7.89450
 1.50000    1.81     1.83   7.89070
 1.55000    1.81     1.83   7.88940
 1.60000    1.81     1.83   7.88560
 1.65000    1.81     1.83   7.88500
 1.70000    1.81     1.83   7.88080
 1.75000    1.81     1.83   7.88100
 1.80000    1.81     1.83   7.87520
 1.85000    1.81     1.83   7.87490
 1.90000    1.81     1.83   7.87900
 1.95000    1.81     1.83   7.88080
 2.00000    1.82     1.83   7.88470
 2.05000    1.82     1.83   7.88720
 2.10000    1.82     1.84   7.89170
 2.15000    1.82     1.84   7.89900
 2.20000    1.82     1.84   7.90290
 2.25000    1.82     1.84   7.90620
 2.30000    1.82     1.84   7.91040
 2.35000    1.82     1.84   7.90950
 2.40000    1.82     1.84   7.91450
 2.45000    1.82     1.84   7.91550
 2.50000    1.82     1.84   7.91930
 2.55000    1.82     1.84   7.92020
 2.60000    1.83     1.84   7.92780
 2.65000    1.83     1.84   7.92780
 2.70000    1.83     1.84   7.93160
 2.75000    1.83     1.84   7.93790
 2.80000    1.83     1.84   7.94340
 2.85000    1.83     1.84   7.94480
 2.90000    1.83     1.84   7.95350
 2.95000    1.83     1.84   7.95870
 3.00000    1.83     1.85   7.96220
 3.05000    1.83     1.85   7.96650
 3.10000    1.83     1.85   7.97540
 3.15000    1.83     1.85   7.97960
 3.20000    1.83     1.85   7.98910
 3.25000    1.83     1.85   7.98870
 3.30000    1.83     1.85   7.99680
 3.35000    1.83     1.85   8.00040
 3.40000    1.83     1.85   8.00530
 3.45000    1.83     1.85   8.01210
 3.50000    1.83     1.85   8.01560
 3.55000    1.84     1.85   8.02040
 3.60000    1.84     1.85   8.02440
 3.65000    1.84     1.85   8.03090
 3.70000    1.84     1.85   8.03700
 3.75000    1.84     1.85   8.03940
 3.80000    1.84     1.85   8.04520
 3.85000    1.84     1.85   8.04710
 3.90000    1.84     1.85   8.05450
 3.95000    1.84     1.86   8.05710
 4.00000    1.84     1.86   8.05850
 4.05000    1.84     1.86   8.06090
 4.10000    1.84     1.86   8.06540
 4.15000    1.84     1.86   8.06740
 4.20000    1.84     1.86   8.06650
 4.25000    1.84     1.86   8.06870
 4.30000    1.84     1.86   8.06840
 4.35000    1.84     1.86   8.07250
 4.40000    1.84     1.86   8.07560
 4.45000    1.84     1.86   8.07060
 4.50000    1.84     1.86   8.07930
 4.55000    1.84     1.86   8.07840
 4.60000    1.84     1.86   8.07960
 4.65000    1.84     1.86   8.08330
 4.70000    1.84     1.86   8.08280
 4.75000    1.84     1.86   8.08690
 4.80000    1.84     1.86   8.09230
 4.85000    1.84     1.86   8.09340
 4.90000    1.84     1.86   8.09620
 4.95000    1.84     1.86   8.09750
 5.00000    1.84     1.86   8.09850
 5.00000    1.84     1.86   8.09890
 4.95000    1.84     1.86   8.09650
 4.90000    1.84     1.86   8.09990
 4.85000    1.84     1.86   8.09750
 4.80000    1.84     1.86   8.09470
 4.75000    1.84     1.86   8.09250
 4.70000    1.84     1.86   8.08970
 4.65000    1.84     1.86   8.08750
 4.60000    1.84     1.86   8.08220
 4.55000    1.84     1.86   8.08320
 4.50000    1.84     1.86   8.08120
 4.45000    1.84     1.86   8.07760
 4.40000    1.84     1.86   8.07580
 4.35000    1.84     1.86   8.07610
 4.30000    1.84     1.86   8.07290
 4.25000    1.84     1.86   8.07280
 4.20000    1.84     1.86   8.07070
 4.15000    1.84     1.86   8.06850
 4.10000    1.84     1.86   8.06290
 4.05000    1.84     1.86   8.06160
 4.00000    1.84     1.86   8.05630
 3.95000    1.84     1.86   8.05930
 3.90000    1.84     1.86   8.05470
 3.85000    1.84     1.86   8.05610
 3.80000    1.84     1.85   8.05240
 3.75000    1.84     1.85   8.04880
 3.70000    1.84     1.85   8.04610
 3.65000    1.84     1.85   8.03910
 3.60000    1.84     1.85   8.03190
 3.55000    1.84     1.85   8.02790
 3.50000    1.83     1.85   8.02510
 3.45000    1.83     1.85   8.01890
 3.40000    1.83     1.85   8.01650
 3.35000    1.83     1.85   8.00930
 3.30000    1.83     1.85   8.00530
 3.25000    1.83     1.85   8.00320
 3.20000    1.83     1.85   7.99570
 3.15000    1.83     1.85   7.98940
 3.10000    1.83     1.85   7.98460
 3.05000    1.83     1.85   7.98290
 3.00000    1.83     1.85   7.97650
 2.95000    1.83     1.84   7.96970
 2.90000    1.83     1.84   7.96410
 2.85000    1.83     1.84   7.96180
 2.80000    1.83     1.84   7.95730
 2.75000    1.83     1.84   7.94700
 2.70000    1.83     1.84   7.94580
 2.65000    1.83     1.84   7.93770
 2.60000    1.83     1.84   7.93670
 2.55000    1.83     1.84   7.93130
 2.50000    1.83     1.84   7.92570
 2.45000    1.82     1.84   7.92520
 2.40000    1.82     1.84   7.92370
 2.35000    1.82     1.84   7.91840
 2.30000    1.82     1.84   7.91730
 2.25000    1.82     1.84   7.91580
 2.20000    1.82     1.84   7.91110
 2.15000    1.82     1.84   7.91070
 2.10000    1.82     1.84   7.90460
 2.05000    1.82     1.84   7.90150
 2.00000    1.82     1.84   7.90100
 1.95000    1.82     1.84   7.89860
 1.90000    1.82     1.83   7.89860
 1.85000    1.82     1.83   7.89430
 1.80000    1.82     1.83   7.89190
 1.75000    1.82     1.83   7.89680
 1.70000    1.82     1.83   7.89800
 1.65000    1.82     1.83   7.90490
 1.60000    1.81     1.83   7.91100
 1.55000    1.81     1.83   7.91400
 1.50000    1.81     1.83   7.91780
 1.45000    1.81     1.83   7.92000
 1.40000    1.81     1.83   7.92360
 1.35000    1.81     1.83   7.93140
 1.30000    1.81     1.83   7.94260
 1.25000    1.81     1.83   7.94480
 1.20000    1.81     1.83   7.95020
 1.15000    1.81     1.83   7.95760
 1.10000    1.81     1.83   7.95910
 1.05000    1.81     1.83   7.96510
 1.00000    1.81     1.83   7.96300
 0.95000    1.81     1.83   7.97000
 0.90000    1.81     1.83   7.97050
 0.85000    1.81     1.83   7.97150
 0.80000    1.80     1.83   7.97640
 0.75000    1.80     1.83   7.97780
 0.70000    1.80     1.83   7.97760
 0.65000    1.80     1.83   7.97960
 0.60000    1.80     1.83   7.97810
 0.55000    1.80     1.82   7.97970
 0.50000    1.80     1.82   7.97950
 0.45000    1.80     1.82   7.98100
 0.40000    1.80     1.82   7.97840
 0.35000    1.80     1.82   7.98090
 0.30000    1.80     1.82   7.98000
 0.25000    1.80     1.82   7.97970
 0.20000    1.80     1.82   7.97840
 0.15000    1.80     1.82   7.97860
 0.10000    1.80     1.82   7.97520
 0.05000    1.80     1.82   7.97700
-0.00000    1.80     1.82   7.97770
