 Field[T] Tsmpl[K] Tcntr[K] Signal
 0.00000    1.80     1.82   5.84500
 0.05000    1.80     1.82   5.84410
 0.10000    1.80     1.82   5.84520
 0.15000    1.80     1.82   5.84730
 0.20000    1.80     1.82   5.84460
 0.25000    1.80     1.82   5.84660
 0.30000    1.80     1.82   5.84800
 0.35000    1.80     1.82   5.84840
 0.40000    1.80     1.82   5.84510
 0.45000    1.80     1.82   5.84210
 0.50000    1.80     1.82   5.84210
 0.55000    1.80     1.82   5.84380
 0.60000    1.80     1.82   5.84040
 0.65000    1.80     1.82   5.83840
 0.70000    1.80     1.82   5.83530
 0.75000    1.80     1.82   5.83680
 0.80000    1.80     1.82   5.83330
 0.85000    1.80     1.82   5.83590
 0.90000    1.80     1.82   5.83320
 0.95000    1.80     1.82   5.83310
 1.00000    1.80     1.82   5.82880
 1.05000    1.80     1.82   5.82820
 1.10000    1.80     1.82   5.82210
 1.15000    1.80     1.82   5.82210
 1.20000    1.80     1.82   5.82030
 1.25000    1.80     1.83   5.81410
 1.30000    1.80     1.83   5.81240
 1.35000    1.80     1.83   5.80880
 1.40000    1.81     1.83   5.80050
 1.45000    1.81     1.83   5.79560
 1.50000    1.81     1.83   5.78880
 1.55000    1.81     1.83   5.78580
 1.60000    1.81     1.83   5.78320
 1.65000    1.81     1.83   5.78400
 1.70000    1.81     1.83   5.78350
 1.75000    1.81     1.83   5.77740
 1.80000    1.81     1.83   5.77480
 1.85000    1.81     1.83   5.76870
 1.90000    1.81     1.83   5.76620
 1.95000    1.81     1.83   5.75970
 2.00000    1.82     1.83   5.76110
 2.05000    1.82     1.83   5.76250
 2.10000    1.82     1.84   5.76510
 2.15000    1.82     1.84   5.76270
 2.20000    1.82     1.84   5.76660
 2.25000    1.82     1.84   5.76930
 2.30000    1.82     1.84   5.76710
 2.35000    1.82     1.84   5.77110
 2.40000    1.82     1.84   5.77370
 2.45000    1.82     1.84   5.77400
 2.50000    1.82     1.84   5.77300
 2.55000    1.82     1.84   5.77460
 2.60000    1.82     1.84   5.77740
 2.65000    1.83     1.84   5.78100
 2.70000    1.83     1.84   5.77970
 2.75000    1.83     1.85   5.78390
 2.80000    1.83     1.85   5.78310
 2.85000    1.83     1.85   5.78440
 2.90000    1.83     1.85   5.78330
 2.95000    1.83     1.85   5.78080
 3.00000    1.83     1.85   5.78860
 3.05000    1.83     1.85   5.78620
 3.10000    1.83     1.85   5.79390
 3.15000    1.83     1.85   5.79230
 3.20000    1.83     1.85   5.79630
 3.25000    1.83     1.85   5.79930
 3.30000    1.84     1.85   5.80110
 3.35000    1.84     1.85   5.80720
 3.40000    1.84     1.85   5.80760
 3.45000    1.84     1.85   5.81800
 3.50000    1.84     1.85   5.81900
 3.55000    1.84     1.85   5.81990
 3.60000    1.84     1.86   5.81520
 3.65000    1.84     1.86   5.81740
 3.70000    1.84     1.86   5.81870
 3.75000    1.84     1.86   5.82120
 3.80000    1.84     1.86   5.82200
 3.85000    1.84     1.86   5.82350
 3.90000    1.84     1.86   5.82280
 3.95000    1.84     1.86   5.82700
 4.00000    1.84     1.86   5.82720
 4.05000    1.84     1.86   5.82860
 4.10000    1.84     1.86   5.83130
 4.15000    1.84     1.86   5.82950
 4.20000    1.84     1.86   5.83130
 4.25000    1.84     1.86   5.83070
 4.30000    1.84     1.86   5.83350
 4.35000    1.84     1.86   5.83640
 4.40000    1.84     1.86   5.83870
 4.45000    1.84     1.86   5.83860
 4.50000    1.84     1.86   5.84050
 4.55000    1.84     1.86   5.84210
 4.60000    1.84     1.86   5.83980
 4.65000    1.85     1.86   5.83550
 4.70000    1.85     1.86   5.83770
 4.75000    1.85     1.86   5.83400
 4.80000    1.85     1.86   5.83720
 4.85000    1.85     1.86   5.83710
 4.90000    1.85     1.87   5.83730
 4.95000    1.85     1.87   5.84060
 5.00000    1.85     1.87   5.83800
 5.00000    1.85     1.87   5.84070
 4.95000    1.85     1.87   5.83990
 4.90000    1.85     1.87   5.83820
 4.85000    1.85     1.87   5.84220
 4.80000    1.85     1.87   5.83910
 4.75000    1.85     1.87   5.83620
 4.70000    1.85     1.87   5.83580
 4.65000    1.85     1.87   5.83670
 4.60000    1.85     1.86   5.83820
 4.55000    1.85     1.86   5.83600
 4.50000    1.84     1.86   5.83940
 4.45000    1.84     1.86   5.83400
 4.40000    1.84     1.86   5.83600
 4.35000    1.84     1.86   5.83550
 4.30000    1.84     1.86   5.83260
 4.25000    1.84     1.86   5.83380
 4.20000    1.84     1.86   5.83320
 4.15000    1.84     1.86   5.83410
 4.10000    1.84     1.86   5.83180
 4.05000    1.84     1.86   5.82890
 4.00000    1.84     1.86   5.82400
 3.95000    1.84     1.86   5.82430
 3.90000    1.84     1.86   5.82010
 3.85000    1.84     1.86   5.81670
 3.80000    1.84     1.86   5.81470
 3.75000    1.84     1.86   5.81580
 3.70000    1.84     1.85   5.81330
 3.65000    1.84     1.85   5.80920
 3.60000    1.84     1.85   5.80610
 3.55000    1.84     1.85   5.80480
 3.50000    1.84     1.85   5.80330
 3.45000    1.84     1.85   5.79970
 3.40000    1.83     1.85   5.79730
 3.35000    1.83     1.85   5.79700
 3.30000    1.83     1.85   5.79380
 3.25000    1.83     1.85   5.79250
 3.20000    1.83     1.85   5.78600
 3.15000    1.83     1.85   5.78490
 3.10000    1.83     1.85   5.78150
 3.05000    1.83     1.85   5.77990
 3.00000    1.83     1.85   5.77350
 2.95000    1.83     1.85   5.77300
 2.90000    1.83     1.85   5.77230
 2.85000    1.83     1.84   5.77510
 2.80000    1.83     1.84   5.77420
 2.75000    1.83     1.84   5.76860
 2.70000    1.83     1.84   5.76580
 2.65000    1.83     1.84   5.76420
 2.60000    1.83     1.84   5.76060
 2.55000    1.83     1.84   5.75790
 2.50000    1.83     1.84   5.75700
 2.45000    1.83     1.84   5.75340
 2.40000    1.82     1.84   5.75450
 2.35000    1.82     1.84   5.74820
 2.30000    1.82     1.84   5.75050
 2.25000    1.82     1.84   5.74790
 2.20000    1.82     1.84   5.74470
 2.15000    1.82     1.84   5.74340
 2.10000    1.82     1.84   5.74030
 2.05000    1.82     1.84   5.74150
 2.00000    1.82     1.84   5.73870
 1.95000    1.82     1.84   5.74390
 1.90000    1.82     1.84   5.74450
 1.85000    1.82     1.84   5.74720
 1.80000    1.82     1.84   5.74830
 1.75000    1.82     1.84   5.74910
 1.70000    1.82     1.83   5.75200
 1.65000    1.82     1.83   5.75350
 1.60000    1.82     1.83   5.75600
 1.55000    1.82     1.83   5.75830
 1.50000    1.81     1.83   5.76810
 1.45000    1.81     1.83   5.77030
 1.40000    1.81     1.83   5.78130
 1.35000    1.81     1.83   5.78700
 1.30000    1.81     1.83   5.79490
 1.25000    1.81     1.83   5.79740
 1.20000    1.81     1.83   5.79920
 1.15000    1.81     1.83   5.79970
 1.10000    1.81     1.83   5.80110
 1.05000    1.81     1.83   5.80280
 1.00000    1.81     1.83   5.80270
 0.95000    1.81     1.83   5.80480
 0.90000    1.81     1.83   5.80580
 0.85000    1.81     1.83   5.80470
 0.80000    1.80     1.83   5.81100
 0.75000    1.80     1.83   5.80790
 0.70000    1.80     1.83   5.81010
 0.65000    1.80     1.83   5.80900
 0.60000    1.80     1.83   5.81160
 0.55000    1.80     1.83   5.81380
 0.50000    1.80     1.83   5.81260
 0.45000    1.80     1.83   5.81570
 0.40000    1.80     1.82   5.81480
 0.35000    1.80     1.82   5.81630
 0.30000    1.80     1.82   5.82050
 0.25000    1.80     1.82   5.81310
 0.20000    1.80     1.82   5.81470
 0.15000    1.80     1.82   5.81150
 0.10000    1.80     1.82   5.81160
 0.05000    1.80     1.82   5.81290
-0.00000    1.80     1.82   5.81090
