 Field[T] Tsmpl[K] Tcntr[K] Signal
 0.00000    1.81     1.83   0.43450
 0.05000    1.81     1.83   0.43490
 0.10000    1.81     1.83   0.43780
 0.15000    1.81     1.83   0.43740
 0.20000    1.81     1.83   0.43540
 0.25000    1.81     1.83   0.43800
 0.30000    1.81     1.83   0.43630
 0.35000    1.81     1.83   0.43590
 0.40000    1.81     1.83   0.43940
 0.45000    1.81     1.83   0.43940
 0.50000    1.81     1.83   0.44040
 0.55000    1.81     1.83   0.43930
 0.60000    1.81     1.83   0.44140
 0.65000    1.81     1.83   0.44200
 0.70000    1.81     1.83   0.44190
 0.75000    1.81     1.83   0.44350
 0.80000    1.81     1.83   0.44350
 0.85000    1.81     1.83   0.44200
 0.90000    1.81     1.83   0.44450
 0.95000    1.81     1.83   0.44250
 1.00000    1.81     1.83   0.44560
 1.05000    1.81     1.83   0.44610
 1.10000    1.81     1.83   0.44840
 1.15000    1.81     1.83   0.44630
 1.20000    1.81     1.83   0.44860
 1.25000    1.81     1.83   0.44900
 1.30000    1.81     1.83   0.45000
 1.35000    1.81     1.83   0.44930
 1.40000    1.81     1.83   0.44900
 1.45000    1.81     1.84   0.44990
 1.50000    1.81     1.84   0.45140
 1.55000    1.81     1.84   0.45010
 1.60000    1.82     1.84   0.45280
 1.65000    1.82     1.84   0.45370
 1.70000    1.82     1.84   0.45450
 1.75000    1.82     1.84   0.45270
 1.80000    1.82     1.84   0.45190
 1.85000    1.82     1.84   0.45230
 1.90000    1.82     1.84   0.45550
 1.95000    1.82     1.84   0.45530
 2.00000    1.82     1.84   0.45330
 2.05000    1.82     1.84   0.45380
 2.10000    1.82     1.84   0.45500
 2.15000    1.82     1.84   0.45440
 2.20000    1.82     1.84   0.45690
 2.25000    1.82     1.84   0.45560
 2.30000    1.83     1.84   0.45410
 2.35000    1.83     1.84   0.45500
 2.40000    1.83     1.84   0.45320
 2.45000    1.83     1.84   0.45320
 2.50000    1.83     1.85   0.45430
 2.55000    1.83     1.85   0.45460
 2.60000    1.83     1.85   0.45280
 2.65000    1.83     1.85   0.45450
 2.70000    1.83     1.85   0.45570
 2.75000    1.83     1.85   0.45380
 2.80000    1.83     1.85   0.45380
 2.85000    1.83     1.85   0.45480
 2.90000    1.83     1.85   0.45530
 2.95000    1.83     1.85   0.45460
 3.00000    1.84     1.85   0.45530
 3.05000    1.84     1.85   0.45550
 3.10000    1.84     1.85   0.45620
 3.15000    1.84     1.85   0.45670
 3.20000    1.84     1.86   0.45610
 3.25000    1.84     1.86   0.45700
 3.30000    1.84     1.86   0.45740
 3.35000    1.84     1.86   0.45580
 3.40000    1.84     1.86   0.45780
 3.45000    1.84     1.86   0.45880
 3.50000    1.84     1.86   0.46030
 3.55000    1.84     1.86   0.46000
 3.60000    1.84     1.86   0.45970
 3.65000    1.84     1.86   0.46150
 3.70000    1.84     1.86   0.46010
 3.75000    1.84     1.86   0.45950
 3.80000    1.84     1.86   0.46080
 3.85000    1.84     1.86   0.46240
 3.90000    1.84     1.86   0.46300
 3.95000    1.84     1.86   0.46340
 4.00000    1.84     1.86   0.46180
 4.05000    1.84     1.86   0.46500
 4.10000    1.84     1.86   0.46370
 4.15000    1.84     1.86   0.46600
 4.20000    1.84     1.86   0.46360
 4.25000    1.85     1.86   0.46500
 4.30000    1.85     1.86   0.46580
 4.35000    1.85     1.86   0.46600
 4.40000    1.85     1.86   0.46640
 4.45000    1.85     1.86   0.46740
 4.50000    1.85     1.86   0.46710
 4.55000    1.85     1.86   0.46660
 4.60000    1.85     1.87   0.46640
 4.65000    1.85     1.87   0.46890
 4.70000    1.85     1.87   0.46870
 4.75000    1.85     1.87   0.46710
 4.80000    1.85     1.87   0.46950
 4.85000    1.85     1.87   0.46900
 4.90000    1.85     1.87   0.46910
 4.95000    1.85     1.87   0.46750
 5.00000    1.85     1.87   0.47270
 5.00000    1.85     1.87   0.46890
 4.95000    1.85     1.87   0.47060
 4.90000    1.85     1.87   0.46930
 4.85000    1.85     1.87   0.46950
 4.80000    1.85     1.87   0.46860
 4.75000    1.85     1.87   0.46790
 4.70000    1.85     1.87   0.46710
 4.65000    1.85     1.86   0.46950
 4.60000    1.85     1.86   0.46650
 4.55000    1.85     1.86   0.46620
 4.50000    1.85     1.86   0.46560
 4.45000    1.85     1.86   0.46630
 4.40000    1.84     1.86   0.46490
 4.35000    1.84     1.86   0.46440
 4.30000    1.84     1.86   0.46350
 4.25000    1.84     1.86   0.46430
 4.20000    1.84     1.86   0.46560
 4.15000    1.84     1.86   0.46160
 4.10000    1.84     1.86   0.46230
 4.05000    1.84     1.86   0.46280
 4.00000    1.84     1.86   0.46490
 3.95000    1.84     1.86   0.46370
 3.90000    1.84     1.86   0.46520
 3.85000    1.84     1.86   0.46330
 3.80000    1.84     1.85   0.46250
 3.75000    1.84     1.85   0.46330
 3.70000    1.84     1.85   0.45960
 3.65000    1.84     1.85   0.46050
 3.60000    1.84     1.85   0.45950
 3.55000    1.84     1.85   0.46100
 3.50000    1.83     1.85   0.46010
 3.45000    1.83     1.85   0.45790
 3.40000    1.83     1.85   0.45800
 3.35000    1.83     1.85   0.45770
 3.30000    1.83     1.85   0.45600
 3.25000    1.83     1.85   0.45570
 3.20000    1.83     1.85   0.45650
 3.15000    1.83     1.85   0.45420
 3.10000    1.83     1.85   0.45530
 3.05000    1.83     1.84   0.45510
 3.00000    1.83     1.84   0.45470
 2.95000    1.83     1.84   0.45430
 2.90000    1.83     1.84   0.45460
 2.85000    1.83     1.84   0.45390
 2.80000    1.83     1.84   0.45370
 2.75000    1.83     1.84   0.45200
 2.70000    1.83     1.84   0.45350
 2.65000    1.82     1.84   0.45150
 2.60000    1.82     1.84   0.45260
 2.55000    1.82     1.84   0.45320
 2.50000    1.82     1.84   0.45210
 2.45000    1.82     1.84   0.45230
 2.40000    1.82     1.84   0.45340
 2.35000    1.82     1.84   0.45320
 2.30000    1.82     1.84   0.45290
 2.25000    1.82     1.84   0.45060
 2.20000    1.82     1.84   0.45210
 2.15000    1.82     1.84   0.45130
 2.10000    1.82     1.83   0.45130
 2.05000    1.82     1.83   0.45210
 2.00000    1.82     1.83   0.45320
 1.95000    1.82     1.83   0.45170
 1.90000    1.82     1.83   0.45240
 1.85000    1.82     1.83   0.45180
 1.80000    1.81     1.83   0.45190
 1.75000    1.81     1.83   0.45000
 1.70000    1.81     1.83   0.45040
 1.65000    1.81     1.83   0.45160
 1.60000    1.81     1.83   0.44890
 1.55000    1.81     1.83   0.45060
 1.50000    1.81     1.83   0.44900
 1.45000    1.81     1.83   0.44900
 1.40000    1.81     1.83   0.45070
 1.35000    1.81     1.83   0.44910
 1.30000    1.81     1.83   0.44930
 1.25000    1.81     1.83   0.45060
 1.20000    1.81     1.83   0.44880
 1.15000    1.81     1.83   0.44740
 1.10000    1.80     1.83   0.44730
 1.05000    1.80     1.83   0.44780
 1.00000    1.80     1.83   0.44630
 0.95000    1.80     1.83   0.44520
 0.90000    1.80     1.83   0.44490
 0.85000    1.80     1.82   0.44190
 0.80000    1.80     1.82   0.44400
 0.75000    1.80     1.82   0.44390
 0.70000    1.80     1.82   0.44240
 0.65000    1.80     1.82   0.44290
 0.60000    1.80     1.82   0.44200
 0.55000    1.80     1.82   0.43960
 0.50000    1.80     1.82   0.44080
 0.45000    1.80     1.82   0.44000
 0.40000    1.80     1.82   0.44070
 0.35000    1.80     1.82   0.43920
 0.30000    1.80     1.82   0.44020
 0.25000    1.80     1.82   0.43810
 0.20000    1.80     1.82   0.43850
 0.15000    1.80     1.82   0.43810
 0.10000    1.80     1.82   0.43770
 0.05000    1.80     1.82   0.43700
-0.00000    1.80     1.82   0.43760
