 Field[T] Tsmpl[K] Tcntr[K] Signal   Mirror[MM]
 0.00000    1.87     1.87   0.70453  -9.0354
 0.05000    1.87     1.87   0.70529  -9.0354
 0.10000    1.87     1.87   0.70495  -9.0343
 0.15000    1.87     1.87   0.70519  -9.0353
 0.20000    1.87     1.87   0.70389  -9.0339
 0.25000    1.87     1.87   0.70061  -9.0336
 0.30000    1.87     1.87   0.69559  -9.0340
 0.35000    1.87     1.87   0.68525  -9.0373
 0.40000    1.87     1.87   0.68467  -9.0398
 0.45000    1.87     1.87   0.68700  -9.0420
 0.50000    1.87     1.87   0.69009  -9.0454
 0.55000    1.87     1.87   0.69138  -9.0464
 0.60000    1.87     1.87   0.69676  -9.0487
 0.65000    1.87     1.87   0.69798  -9.0486
 0.70000    1.87     1.87   0.70377  -9.0510
 0.75000    1.87     1.87   0.70718  -9.0517
 0.80000    1.87     1.87   0.71407  -9.0514
 0.85000    1.87     1.87   0.71718  -9.0510
 0.90000    1.87     1.87   0.71861  -9.0503
 0.95000    1.87     1.87   0.72126  -9.0505
 1.00000    1.87     1.87   0.72355  -9.0505
 1.05000    1.87     1.87   0.72469  -9.0498
 1.10000    1.87     1.87   0.72389  -9.0492
 1.15000    1.87     1.87   0.72529  -9.0489
 1.20000    1.87     1.87   0.72782  -9.0492
 1.25000    1.87     1.87   0.72750  -9.0489
 1.30000    1.87     1.87   0.72756  -9.0485
 1.35000    1.87     1.87   0.72961  -9.0490
 1.40000    1.87     1.87   0.72871  -9.0485
 1.45000    1.87     1.87   0.72971  -9.0483
 1.50000    1.87     1.87   0.73134  -9.0482
 1.55000    1.87     1.87   0.73055  -9.0489
 1.60000    1.87     1.87   0.73053  -9.0487
 1.65000    1.87     1.87   0.73220  -9.0489
 1.70000    1.87     1.87   0.73268  -9.0483
 1.75000    1.87     1.87   0.73204  -9.0482
 1.80000    1.87     1.87   0.73208  -9.0478
 1.85000    1.87     1.87   0.73391  -9.0485
 1.90000    1.87     1.87   0.73359  -9.0481
 1.95000    1.87     1.87   0.73324  -9.0481
 2.00000    1.87     1.87   0.73322  -9.0477
 2.05000    1.87     1.87   0.73286  -9.0473
 2.10000    1.87     1.87   0.73359  -9.0475
 2.15000    1.87     1.87   0.73387  -9.0478
 2.20000    1.87     1.87   0.73387  -9.0476
 2.25000    1.87     1.87   0.73342  -9.0469
 2.30000    1.87     1.87   0.73391  -9.0473
 2.35000    1.87     1.87   0.73322  -9.0468
 2.40000    1.87     1.87   0.73497  -9.0470
 2.45000    1.87     1.87   0.73316  -9.0458
 2.50000    1.87     1.87   0.73497  -9.0474
 2.55000    1.87     1.87   0.73425  -9.0472
 2.60000    1.87     1.87   0.73463  -9.0468
 2.65000    1.87     1.87   0.73571  -9.0473
 2.70000    1.87     1.87   0.73525  -9.0467
 2.75000    1.87     1.87   0.73589  -9.0468
 2.80000    1.87     1.87   0.73628  -9.0468
 2.85000    1.87     1.87   0.73507  -9.0470
 2.90000    1.87     1.87   0.73342  -9.0455
 2.95000    1.87     1.87   0.73594  -9.0471
 3.00000    1.87     1.87   0.73473  -9.0471
 3.05000    1.87     1.87   0.73604  -9.0470
 3.10000    1.87     1.87   0.73465  -9.0472
 3.15000    1.87     1.87   0.73455  -9.0471
 3.20000    1.87     1.87   0.73571  -9.0466
 3.25000    1.87     1.87   0.73577  -9.0461
 3.30000    1.87     1.87   0.73557  -9.0463
 3.35000    1.87     1.87   0.73505  -9.0462
 3.40000    1.87     1.87   0.73507  -9.0474
 3.45000    1.87     1.87   0.73489  -9.0470
 3.50000    1.87     1.87   0.73541  -9.0461
 3.55000    1.87     1.87   0.73596  -9.0471
 3.60000    1.87     1.87   0.73563  -9.0469
 3.65000    1.87     1.87   0.73459  -9.0460
 3.70000    1.87     1.87   0.73610  -9.0461
 3.75000    1.87     1.87   0.73594  -9.0464
 3.80000    1.87     1.87   0.73606  -9.0461
 3.85000    1.87     1.87   0.73525  -9.0463
 3.90000    1.87     1.87   0.73557  -9.0462
 3.95000    1.87     1.87   0.73373  -9.0463
 4.00000    1.87     1.87   0.73533  -9.0466
 4.05000    1.87     1.87   0.73521  -9.0459
 4.10000    1.87     1.87   0.73407  -9.0449
 4.15000    1.87     1.87   0.73529  -9.0449
 4.20000    1.87     1.87   0.73549  -9.0458
 4.25000    1.87     1.87   0.73529  -9.0454
 4.30000    1.87     1.87   0.73539  -9.0455
 4.35000    1.87     1.87   0.73618  -9.0452
 4.40000    1.87     1.87   0.73686  -9.0462
 4.45000    1.87     1.87   0.73670  -9.0458
 4.50000    1.87     1.87   0.73820  -9.0459
 4.55000    1.87     1.87   0.73752  -9.0463
 4.60000    1.87     1.87   0.73680  -9.0462
 4.65000    1.87     1.87   0.73539  -9.0453
 4.70000    1.87     1.87   0.73634  -9.0460
 4.75000    1.87     1.87   0.73561  -9.0457
 4.80000    1.87     1.87   0.73545  -9.0457
 4.85000    1.87     1.87   0.73650  -9.0452
 4.90000    1.87     1.87   0.73571  -9.0452
 4.95000    1.87     1.87   0.73634  -9.0451
 5.00000    1.87     1.87   0.73660  -9.0455
 5.05000    1.87     1.87   0.73622  -9.0449
 5.10000    1.87     1.87   0.73479  -9.0443
 5.15000    1.87     1.87   0.73533  -9.0455
 5.20000    1.87     1.87   0.73606  -9.0446
 5.25000    1.87     1.87   0.73656  -9.0454
 5.30000    1.87     1.87   0.73644  -9.0456
 5.35000    1.87     1.87   0.73521  -9.0453
 5.40000    1.87     1.87   0.73467  -9.0453
 5.45000    1.87     1.87   0.73571  -9.0451
 5.50000    1.87     1.87   0.73696  -9.0453
 5.55000    1.87     1.87   0.73700  -9.0456
 5.60000    1.87     1.87   0.73539  -9.0451
 5.65000    1.87     1.87   0.73596  -9.0450
 5.70000    1.87     1.87   0.73531  -9.0447
 5.75000    1.87     1.87   0.73596  -9.0454
 5.80000    1.87     1.87   0.73656  -9.0451
 5.85000    1.87     1.87   0.73642  -9.0446
 5.90000    1.87     1.87   0.73557  -9.0448
 5.95000    1.87     1.87   0.73620  -9.0443
 6.00000    1.87     1.87   0.73591  -9.0449
 6.05000    1.87     1.87   0.73614  -9.0450
 6.10000    1.87     1.87   0.73561  -9.0448
 6.15000    1.87     1.87   0.73579  -9.0443
 6.20000    1.87     1.87   0.73479  -9.0437
 6.25000    1.87     1.87   0.73455  -9.0440
 6.30000    1.87     1.87   0.73431  -9.0436
 6.35000    1.87     1.87   0.73591  -9.0445
 6.40000    1.87     1.87   0.73507  -9.0445
 6.45000    1.87     1.87   0.73511  -9.0438
 6.50000    1.87     1.87   0.73553  -9.0438
 6.55000    1.87     1.87   0.73525  -9.0442
 6.60000    1.87     1.87   0.73483  -9.0439
 6.65000    1.87     1.87   0.73439  -9.0432
 6.70000    1.87     1.87   0.73585  -9.0443
 6.75000    1.87     1.87   0.73545  -9.0441
 6.80000    1.87     1.87   0.73441  -9.0440
 6.85000    1.87     1.87   0.73523  -9.0441
 6.90000    1.87     1.87   0.73529  -9.0441
 6.95000    1.87     1.87   0.73441  -9.0437
 7.00000    1.87     1.87   0.73409  -9.0445
 7.00000    1.87     1.87   0.73363  -9.0441
 6.95000    1.87     1.87   0.73537  -9.0441
 6.90000    1.87     1.87   0.73577  -9.0440
 6.85000    1.87     1.87   0.73322  -9.0430
 6.80000    1.87     1.87   0.73449  -9.0431
 6.75000    1.87     1.87   0.73515  -9.0434
 6.70000    1.87     1.87   0.73587  -9.0437
 6.65000    1.87     1.87   0.73676  -9.0435
 6.60000    1.87     1.87   0.73585  -9.0432
 6.55000    1.87     1.87   0.73531  -9.0432
 6.50000    1.87     1.87   0.73515  -9.0422
 6.45000    1.87     1.87   0.73710  -9.0436
 6.40000    1.87     1.87   0.73589  -9.0437
 6.35000    1.87     1.87   0.73662  -9.0440
 6.30000    1.87     1.87   0.73638  -9.0442
 6.25000    1.87     1.87   0.73694  -9.0436
 6.20000    1.87     1.87   0.73596  -9.0433
 6.15000    1.87     1.87   0.73758  -9.0443
 6.10000    1.87     1.87   0.73555  -9.0434
 6.05000    1.87     1.87   0.73565  -9.0435
 6.00000    1.87     1.87   0.73744  -9.0437
 5.95000    1.87     1.87   0.73955  -9.0438
 5.90000    1.87     1.87   0.73923  -9.0441
 5.85000    1.87     1.87   0.73905  -9.0438
 5.80000    1.87     1.87   0.73993  -9.0443
 5.75000    1.87     1.87   0.74055  -9.0441
 5.70000    1.87     1.87   0.74065  -9.0440
 5.65000    1.87     1.87   0.73931  -9.0438
 5.60000    1.87     1.87   0.74071  -9.0440
 5.55000    1.87     1.87   0.73853  -9.0442
 5.50000    1.87     1.87   0.73983  -9.0446
 5.45000    1.87     1.87   0.74148  -9.0439
 5.40000    1.87     1.87   0.74154  -9.0441
 5.35000    1.87     1.87   0.74005  -9.0426
 5.30000    1.87     1.87   0.74196  -9.0440
 5.25000    1.87     1.87   0.74260  -9.0442
 5.20000    1.87     1.87   0.74130  -9.0435
 5.15000    1.87     1.87   0.74194  -9.0437
 5.10000    1.87     1.87   0.74359  -9.0443
 5.05000    1.87     1.87   0.74363  -9.0447
 5.00000    1.87     1.87   0.74268  -9.0440
 4.95000    1.87     1.87   0.74260  -9.0444
 4.90000    1.87     1.87   0.74417  -9.0437
 4.85000    1.87     1.87   0.74403  -9.0440
 4.80000    1.87     1.87   0.74403  -9.0446
 4.75000    1.87     1.87   0.74367  -9.0441
 4.70000    1.87     1.87   0.74481  -9.0445
 4.65000    1.87     1.87   0.74415  -9.0438
 4.60000    1.87     1.87   0.74495  -9.0438
 4.55000    1.87     1.87   0.74547  -9.0439
 4.50000    1.87     1.87   0.74604  -9.0440
 4.45000    1.87     1.87   0.74577  -9.0441
 4.40000    1.87     1.87   0.74539  -9.0444
 4.35000    1.87     1.87   0.74567  -9.0451
 4.30000    1.87     1.87   0.74592  -9.0442
 4.25000    1.87     1.87   0.74583  -9.0444
 4.20000    1.87     1.87   0.74543  -9.0448
 4.15000    1.87     1.87   0.74539  -9.0444
 4.10000    1.87     1.87   0.74714  -9.0448
 4.05000    1.87     1.87   0.74634  -9.0445
 4.00000    1.87     1.87   0.74740  -9.0448
 3.95000    1.87     1.87   0.74622  -9.0448
 3.90000    1.87     1.87   0.74724  -9.0448
 3.85000    1.87     1.87   0.74688  -9.0443
 3.80000    1.87     1.87   0.74650  -9.0442
 3.75000    1.87     1.87   0.74836  -9.0450
 3.70000    1.87     1.87   0.74869  -9.0451
 3.65000    1.87     1.87   0.74869  -9.0444
 3.60000    1.87     1.87   0.74921  -9.0444
 3.55000    1.87     1.87   0.74867  -9.0448
 3.50000    1.87     1.87   0.74911  -9.0450
 3.45000    1.87     1.87   0.74658  -9.0448
 3.40000    1.87     1.87   0.74927  -9.0450
 3.35000    1.87     1.87   0.74824  -9.0445
 3.30000    1.87     1.87   0.74786  -9.0446
 3.25000    1.87     1.87   0.74901  -9.0448
 3.20000    1.87     1.87   0.74881  -9.0456
 3.15000    1.87     1.87   0.74863  -9.0445
 3.10000    1.87     1.87   0.74905  -9.0450
 3.05000    1.87     1.87   0.74820  -9.0444
 3.00000    1.87     1.87   0.74937  -9.0451
 2.95000    1.87     1.87   0.74816  -9.0454
 2.90000    1.87     1.87   0.74845  -9.0443
 2.85000    1.87     1.87   0.74893  -9.0450
 2.80000    1.87     1.87   0.75087  -9.0452
 2.75000    1.87     1.87   0.74919  -9.0452
 2.70000    1.87     1.87   0.74911  -9.0458
 2.65000    1.87     1.87   0.74925  -9.0448
 2.60000    1.87     1.87   0.74927  -9.0452
 2.55000    1.87     1.87   0.74895  -9.0450
 2.50000    1.87     1.87   0.74971  -9.0449
 2.45000    1.87     1.87   0.74953  -9.0456
 2.40000    1.87     1.87   0.74893  -9.0456
 2.35000    1.87     1.87   0.74855  -9.0447
 2.30000    1.87     1.87   0.74959  -9.0454
 2.25000    1.87     1.87   0.75001  -9.0455
 2.20000    1.87     1.87   0.75001  -9.0458
 2.15000    1.87     1.87   0.75079  -9.0459
 2.10000    1.87     1.87   0.75122  -9.0457
 2.05000    1.87     1.87   0.75142  -9.0454
 2.00000    1.87     1.87   0.75158  -9.0458
 1.95000    1.87     1.87   0.74933  -9.0459
 1.90000    1.87     1.87   0.75077  -9.0457
 1.85000    1.87     1.87   0.75059  -9.0454
 1.80000    1.87     1.87   0.74987  -9.0457
 1.75000    1.87     1.87   0.74993  -9.0455
 1.70000    1.87     1.87   0.74885  -9.0450
 1.65000    1.87     1.87   0.74939  -9.0454
 1.60000    1.87     1.87   0.74812  -9.0459
 1.55000    1.87     1.87   0.75001  -9.0461
 1.50000    1.87     1.87   0.75108  -9.0462
 1.45000    1.87     1.87   0.74969  -9.0460
 1.40000    1.87     1.87   0.74963  -9.0459
 1.35000    1.87     1.87   0.74642  -9.0440
 1.30000    1.87     1.87   0.74748  -9.0463
 1.25000    1.87     1.87   0.74598  -9.0460
 1.20000    1.87     1.87   0.74656  -9.0464
 1.15000    1.87     1.87   0.74670  -9.0468
 1.10000    1.87     1.87   0.74618  -9.0470
 1.05000    1.87     1.87   0.74407  -9.0463
 1.00000    1.87     1.87   0.74228  -9.0469
 0.95000    1.87     1.87   0.74104  -9.0473
 0.90000    1.87     1.87   0.73983  -9.0475
 0.85000    1.87     1.87   0.73758  -9.0480
 0.80000    1.87     1.87   0.73423  -9.0483
 0.75000    1.87     1.87   0.73096  -9.0481
 0.70000    1.87     1.87   0.72353  -9.0479
 0.65000    1.87     1.87   0.72100  -9.0465
 0.60000    1.87     1.87   0.71814  -9.0455
 0.55000    1.87     1.87   0.71608  -9.0435
 0.50000    1.87     1.87   0.71039  -9.0420
 0.45000    1.87     1.87   0.70810  -9.0396
 0.40000    1.87     1.87   0.70692  -9.0367
 0.35000    1.87     1.87   0.70784  -9.0334
 0.30000    1.87     1.87   0.71690  -9.0302
 0.25000    1.87     1.87   0.72222  -9.0299
 0.20000    1.87     1.87   0.72804  -9.0298
 0.15000    1.87     1.87   0.72766  -9.0305
 0.10000    1.87     1.87   0.73011  -9.0296
 0.05000    1.87     1.87   0.73108  -9.0299
 -0.00000    1.87     1.87   0.73182  -9.0308
