 Field[T] Tsmpl[K] Tcntr[K] Signal   Mirror[MM]
 0.00000    1.79     1.79   0.56722  -9.0080
 0.05000    1.79     1.79   0.57020  -9.0081
 0.10000    1.79     1.79   0.57319  -9.0084
 0.15000    1.79     1.79   0.57610  -9.0083
 0.20000    1.79     1.79   0.57945  -9.0081
 0.25000    1.79     1.79   0.58065  -9.0080
 0.30000    1.79     1.79   0.58176  -9.0081
 0.35000    1.79     1.79   0.58322  -9.0083
 0.40000    1.79     1.79   0.58431  -9.0081
 0.45000    1.79     1.79   0.58497  -9.0084
 0.50000    1.79     1.79   0.58524  -9.0080
 0.55000    1.79     1.79   0.58614  -9.0078
 0.60000    1.79     1.79   0.58682  -9.0075
 0.65000    1.79     1.79   0.58714  -9.0074
 0.70000    1.79     1.79   0.58734  -9.0070
 0.75000    1.79     1.79   0.58736  -9.0064
 0.80000    1.79     1.79   0.58399  -9.0064
 0.85000    1.79     1.79   0.58363  -9.0075
 0.90000    1.79     1.79   0.58266  -9.0081
 0.95000    1.79     1.79   0.58232  -9.0087
 1.00000    1.79     1.79   0.58309  -9.0096
 1.05000    1.79     1.79   0.58424  -9.0099
 1.10000    1.79     1.79   0.58517  -9.0101
 1.15000    1.79     1.79   0.58639  -9.0106
 1.20000    1.79     1.79   0.58723  -9.0111
 1.25000    1.79     1.79   0.58806  -9.0115
 1.30000    1.79     1.79   0.58960  -9.0115
 1.35000    1.79     1.79   0.59100  -9.0117
 1.40000    1.79     1.79   0.59191  -9.0118
 1.45000    1.79     1.79   0.59326  -9.0117
 1.50000    1.79     1.79   0.59354  -9.0118
 1.55000    1.79     1.79   0.59374  -9.0118
 1.60000    1.79     1.79   0.59478  -9.0119
 1.65000    1.79     1.79   0.59428  -9.0119
 1.70000    1.79     1.79   0.59476  -9.0121
 1.75000    1.79     1.79   0.59562  -9.0123
 1.80000    1.79     1.79   0.59636  -9.0122
 1.85000    1.79     1.79   0.59568  -9.0120
 1.90000    1.79     1.79   0.59620  -9.0119
 1.95000    1.79     1.79   0.59661  -9.0118
 2.00000    1.79     1.79   0.59783  -9.0119
 2.05000    1.79     1.79   0.59912  -9.0120
 2.10000    1.79     1.79   0.59835  -9.0122
 2.15000    1.79     1.79   0.59822  -9.0121
 2.20000    1.79     1.79   0.59822  -9.0120
 2.25000    1.79     1.79   0.59887  -9.0120
 2.30000    1.79     1.79   0.59955  -9.0119
 2.35000    1.79     1.79   0.60018  -9.0122
 2.40000    1.79     1.79   0.59991  -9.0121
 2.45000    1.79     1.79   0.59905  -9.0121
 2.50000    1.79     1.79   0.59910  -9.0124
 2.55000    1.79     1.79   0.59923  -9.0120
 2.60000    1.79     1.79   0.59982  -9.0116
 2.65000    1.79     1.79   0.60066  -9.0117
 2.70000    1.79     1.79   0.60131  -9.0120
 2.75000    1.79     1.79   0.60156  -9.0120
 2.80000    1.79     1.79   0.60247  -9.0119
 2.85000    1.79     1.79   0.60269  -9.0119
 2.90000    1.79     1.79   0.60312  -9.0120
 2.95000    1.79     1.79   0.60213  -9.0119
 3.00000    1.79     1.79   0.60177  -9.0119
 3.00000    1.79     1.79   0.60125  -9.0119
 2.95000    1.79     1.79   0.60122  -9.0119
 2.90000    1.79     1.79   0.60118  -9.0118
 2.85000    1.79     1.79   0.60174  -9.0119
 2.80000    1.79     1.79   0.60219  -9.0121
 2.75000    1.79     1.79   0.60229  -9.0120
 2.70000    1.79     1.79   0.60238  -9.0121
 2.65000    1.79     1.79   0.60278  -9.0118
 2.60000    1.79     1.79   0.60296  -9.0120
 2.55000    1.79     1.79   0.60364  -9.0117
 2.50000    1.79     1.79   0.60421  -9.0117
 2.45000    1.79     1.79   0.60572  -9.0119
 2.40000    1.79     1.79   0.60676  -9.0120
 2.35000    1.79     1.79   0.60617  -9.0123
 2.30000    1.79     1.79   0.60561  -9.0120
 2.25000    1.79     1.79   0.60556  -9.0118
 2.20000    1.79     1.79   0.60590  -9.0119
 2.15000    1.79     1.79   0.60604  -9.0119
 2.10000    1.79     1.79   0.60554  -9.0119
 2.05000    1.79     1.79   0.60477  -9.0119
 2.00000    1.79     1.79   0.60425  -9.0121
 1.95000    1.79     1.79   0.60369  -9.0120
 1.90000    1.79     1.79   0.60342  -9.0121
 1.85000    1.79     1.79   0.60353  -9.0121
 1.80000    1.79     1.79   0.60353  -9.0120
 1.75000    1.79     1.79   0.60339  -9.0121
 1.70000    1.79     1.79   0.60373  -9.0118
 1.65000    1.79     1.79   0.60351  -9.0120
 1.60000    1.79     1.79   0.60396  -9.0119
 1.55000    1.79     1.79   0.60439  -9.0120
 1.50000    1.79     1.79   0.60459  -9.0119
 1.45000    1.79     1.79   0.60466  -9.0118
 1.40000    1.79     1.79   0.60525  -9.0120
 1.35000    1.79     1.79   0.60459  -9.0119
 1.30000    1.79     1.79   0.60427  -9.0121
 1.25000    1.79     1.79   0.60375  -9.0120
 1.20000    1.79     1.79   0.60213  -9.0116
 1.15000    1.79     1.79   0.60063  -9.0111
 1.10000    1.79     1.79   0.60000  -9.0106
 1.05000    1.79     1.79   0.59953  -9.0099
 1.00000    1.79     1.79   0.59980  -9.0091
 0.95000    1.79     1.79   0.60000  -9.0084
 0.90000    1.79     1.79   0.60093  -9.0075
 0.85000    1.79     1.79   0.60287  -9.0069
 0.80000    1.79     1.79   0.60534  -9.0058
 0.75000    1.79     1.79   0.60981  -9.0055
 0.70000    1.79     1.79   0.61180  -9.0063
 0.65000    1.79     1.79   0.61264  -9.0065
 0.60000    1.79     1.79   0.61345  -9.0066
 0.55000    1.79     1.79   0.61350  -9.0065
 0.50000    1.79     1.79   0.61431  -9.0067
 0.45000    1.79     1.79   0.61438  -9.0068
 0.40000    1.79     1.79   0.61354  -9.0068
 0.35000    1.79     1.79   0.61364  -9.0068
 0.30000    1.79     1.79   0.61461  -9.0069
 0.25000    1.79     1.79   0.61438  -9.0070
 0.20000    1.79     1.79   0.61431  -9.0072
 0.15000    1.79     1.79   0.61366  -9.0068
 0.10000    1.79     1.79   0.61375  -9.0067
 0.05000    1.79     1.79   0.61429  -9.0067
 -0.00000    1.79     1.79   0.61542  -9.0068
