 Field[T] Tsmpl[K] Tcntr[K] Signal   Mirror[MM]
 0.00000    1.79     1.79   0.80527  -8.9630
 0.05000    1.79     1.79   0.80720  -8.9629
 0.10000    1.79     1.79   0.80797  -8.9629
 0.15000    1.79     1.79   0.80891  -8.9628
 0.20000    1.79     1.79   0.80926  -8.9627
 0.25000    1.79     1.79   0.80877  -8.9628
 0.30000    1.79     1.79   0.80877  -8.9631
 0.35000    1.79     1.79   0.80765  -8.9630
 0.40000    1.79     1.79   0.80907  -8.9630
 0.45000    1.79     1.79   0.81024  -8.9630
 0.50000    1.79     1.79   0.81315  -8.9629
 0.55000    1.79     1.79   0.81311  -8.9629
 0.60000    1.79     1.79   0.81103  -8.9628
 0.65000    1.79     1.79   0.80956  -8.9628
 0.70000    1.79     1.79   0.81059  -8.9628
 0.75000    1.79     1.79   0.80704  -8.9628
 0.80000    1.79     1.79   0.80522  -8.9628
 0.85000    1.79     1.79   0.80242  -8.9624
 0.90000    1.79     1.79   0.79598  -8.9622
 0.95000    1.79     1.79   0.78868  -8.9630
 1.00000    1.79     1.79   0.78514  -8.9637
 1.05000    1.79     1.79   0.78908  -8.9649
 1.10000    1.79     1.79   0.78933  -8.9656
 1.15000    1.79     1.79   0.78898  -8.9660
 1.20000    1.79     1.79   0.79062  -8.9666
 1.25000    1.79     1.79   0.79386  -8.9669
 1.30000    1.79     1.79   0.79818  -8.9671
 1.35000    1.79     1.79   0.80503  -8.9677
 1.40000    1.79     1.79   0.80942  -8.9674
 1.45000    1.79     1.79   0.81196  -8.9672
 1.50000    1.79     1.79   0.81063  -8.9671
 1.55000    1.79     1.79   0.80975  -8.9671
 1.60000    1.79     1.79   0.81266  -8.9669
 1.65000    1.79     1.79   0.81290  -8.9669
 1.70000    1.79     1.79   0.81472  -8.9668
 1.75000    1.79     1.79   0.81301  -8.9668
 1.80000    1.79     1.79   0.81427  -8.9667
 1.85000    1.79     1.79   0.81656  -8.9667
 1.90000    1.79     1.79   0.81639  -8.9666
 1.95000    1.79     1.79   0.81812  -8.9665
 2.00000    1.79     1.79   0.82255  -8.9665
 2.05000    1.79     1.79   0.82003  -8.9666
 2.10000    1.79     1.79   0.82008  -8.9668
 2.15000    1.79     1.79   0.81971  -8.9667
 2.20000    1.79     1.79   0.81975  -8.9665
 2.25000    1.79     1.79   0.82127  -8.9663
 2.30000    1.79     1.79   0.82349  -8.9663
 2.35000    1.79     1.79   0.82374  -8.9662
 2.40000    1.79     1.79   0.82589  -8.9660
 2.45000    1.79     1.79   0.82500  -8.9662
 2.50000    1.79     1.79   0.82463  -8.9662
 2.55000    1.79     1.79   0.82323  -8.9660
 2.60000    1.79     1.79   0.82314  -8.9662
 2.65000    1.79     1.79   0.82197  -8.9660
 2.70000    1.79     1.79   0.82265  -8.9659
 2.75000    1.79     1.79   0.81964  -8.9660
 2.80000    1.79     1.79   0.81999  -8.9660
 2.85000    1.79     1.79   0.81777  -8.9661
 2.90000    1.79     1.79   0.81674  -8.9661
 2.95000    1.79     1.79   0.81523  -8.9659
 3.00000    1.79     1.79   0.81581  -8.9661
 3.00000    1.79     1.79   0.81604  -8.9660
 2.95000    1.79     1.79   0.81714  -8.9658
 2.90000    1.79     1.79   0.81777  -8.9661
 2.85000    1.79     1.79   0.81700  -8.9660
 2.80000    1.79     1.79   0.81688  -8.9661
 2.75000    1.79     1.79   0.81737  -8.9659
 2.70000    1.79     1.79   0.81856  -8.9661
 2.65000    1.79     1.79   0.81940  -8.9660
 2.60000    1.79     1.79   0.82251  -8.9660
 2.55000    1.79     1.79   0.82300  -8.9661
 2.50000    1.79     1.79   0.82064  -8.9663
 2.45000    1.79     1.79   0.82064  -8.9663
 2.40000    1.79     1.79   0.82122  -8.9663
 2.35000    1.79     1.79   0.82167  -8.9663
 2.30000    1.79     1.79   0.82127  -8.9662
 2.25000    1.79     1.79   0.82323  -8.9663
 2.20000    1.79     1.79   0.82118  -8.9664
 2.15000    1.79     1.79   0.82059  -8.9667
 2.10000    1.79     1.79   0.81919  -8.9666
 2.05000    1.79     1.79   0.81821  -8.9666
 2.00000    1.79     1.79   0.81950  -8.9666
 1.95000    1.79     1.79   0.82132  -8.9665
 1.90000    1.79     1.79   0.81901  -8.9665
 1.85000    1.79     1.79   0.81838  -8.9665
 1.80000    1.79     1.79   0.81842  -8.9665
 1.75000    1.79     1.79   0.81980  -8.9666
 1.70000    1.79     1.79   0.81826  -8.9668
 1.65000    1.79     1.79   0.81705  -8.9665
 1.60000    1.79     1.79   0.81719  -8.9664
 1.55000    1.79     1.79   0.81483  -8.9665
 1.50000    1.79     1.79   0.81369  -8.9666
 1.45000    1.79     1.79   0.81493  -8.9667
 1.40000    1.79     1.79   0.81173  -8.9668
 1.35000    1.79     1.79   0.80802  -8.9670
 1.30000    1.79     1.79   0.80415  -8.9667
 1.25000    1.79     1.79   0.80158  -8.9668
 1.20000    1.79     1.79   0.79902  -8.9662
 1.15000    1.79     1.79   0.79484  -8.9659
 1.10000    1.79     1.79   0.79248  -8.9652
 1.05000    1.79     1.79   0.79174  -8.9646
 1.00000    1.79     1.79   0.79321  -8.9638
 0.95000    1.79     1.79   0.79307  -8.9627
 0.90000    1.79     1.79   0.79857  -8.9617
 0.85000    1.79     1.79   0.80753  -8.9620
 0.80000    1.79     1.79   0.81252  -8.9622
 0.75000    1.79     1.79   0.81472  -8.9623
 0.70000    1.79     1.79   0.81936  -8.9623
 0.65000    1.79     1.79   0.82167  -8.9624
 0.60000    1.79     1.79   0.82118  -8.9627
 0.55000    1.79     1.79   0.81964  -8.9625
 0.50000    1.79     1.79   0.81915  -8.9627
 0.45000    1.79     1.79   0.81901  -8.9621
 0.40000    1.79     1.79   0.82162  -8.9622
 0.35000    1.79     1.79   0.82034  -8.9623
 0.30000    1.79     1.79   0.81945  -8.9623
 0.25000    1.79     1.79   0.81975  -8.9623
 0.20000    1.79     1.79   0.82064  -8.9623
 0.15000    1.79     1.79   0.82104  -8.9621
 0.10000    1.79     1.79   0.82069  -8.9623
 0.05000    1.79     1.79   0.82176  -8.9624
 -0.00000    1.79     1.79   0.82162  -8.9625
