 Field[T] Tsmpl[K] Tcntr[K] Signal
 0.00000    1.84     1.86   1.05860
 0.05000    1.84     1.86   1.05680
 0.10000    1.84     1.86   1.05730
 0.15000    1.84     1.86   1.05980
 0.20000    1.84     1.86   1.06320
 0.25000    1.84     1.86   1.06130
 0.30000    1.84     1.86   1.05300
 0.35000    1.84     1.86   1.04910
 0.40000    1.84     1.86   1.05100
 0.45000    1.84     1.86   1.04870
 0.50000    1.84     1.86   1.04350
 0.55000    1.84     1.86   1.04310
 0.60000    1.84     1.86   1.04480
 0.65000    1.84     1.86   1.04350
 0.70000    1.84     1.86   1.04950
 0.75000    1.84     1.86   1.05080
 0.80000    1.84     1.86   1.05880
 0.85000    1.84     1.86   1.05810
 0.90000    1.84     1.86   1.06480
 0.95000    1.84     1.86   1.06970
 1.00000    1.84     1.86   1.06770
 1.05000    1.84     1.86   1.06110
 1.10000    1.84     1.86   1.05280
 1.15000    1.84     1.86   1.03760
 1.20000    1.84     1.86   1.03300
 1.25000    1.84     1.86   1.02410
 1.30000    1.84     1.86   1.01050
 1.35000    1.84     1.86   1.00350
 1.40000    1.84     1.86   0.98870
 1.45000    1.84     1.86   0.97200
 1.50000    1.84     1.86   0.96060
 1.55000    1.84     1.86   0.97530
 1.60000    1.84     1.86   1.00950
 1.65000    1.83     1.86   1.06070
 1.70000    1.83     1.86   1.11590
 1.75000    1.83     1.86   1.17800
 1.80000    1.83     1.86   1.22990
 1.85000    1.83     1.86   1.25100
 1.90000    1.83     1.86   1.26730
 1.95000    1.83     1.86   1.27800
 2.00000    1.83     1.86   1.27680
 2.05000    1.83     1.86   1.26280
 2.10000    1.83     1.86   1.24410
 2.15000    1.83     1.86   1.23190
 2.20000    1.83     1.86   1.21700
 2.25000    1.84     1.86   1.20900
 2.30000    1.84     1.86   1.20570
 2.35000    1.84     1.86   1.20000
 2.40000    1.84     1.87   1.19950
 2.45000    1.84     1.87   1.19400
 2.50000    1.84     1.87   1.19110
 2.55000    1.84     1.87   1.18660
 2.60000    1.84     1.87   1.16940
 2.65000    1.84     1.87   1.16110
 2.70000    1.84     1.87   1.15450
 2.75000    1.84     1.87   1.14230
 2.80000    1.84     1.87   1.12710
 2.85000    1.84     1.87   1.12140
 2.90000    1.84     1.87   1.10930
 2.95000    1.84     1.87   1.10190
 3.00000    1.84     1.87   1.09540
 3.05000    1.84     1.87   1.08620
 3.10000    1.84     1.87   1.08640
 3.15000    1.84     1.87   1.08020
 3.20000    1.84     1.88   1.07580
 3.25000    1.84     1.88   1.07450
 3.30000    1.84     1.88   1.07320
 3.35000    1.85     1.88   1.06750
 3.40000    1.85     1.88   1.06290
 3.45000    1.85     1.88   1.06250
 3.50000    1.85     1.88   1.06340
 3.55000    1.85     1.88   1.06100
 3.60000    1.85     1.88   1.05500
 3.65000    1.85     1.88   1.05460
 3.70000    1.85     1.88   1.05460
 3.75000    1.85     1.88   1.05330
 3.80000    1.85     1.88   1.05530
 3.85000    1.85     1.88   1.05240
 3.90000    1.85     1.88   1.05220
 3.95000    1.85     1.88   1.04990
 4.00000    1.85     1.89   1.04870
 4.05000    1.85     1.89   1.05150
 4.10000    1.85     1.89   1.05140
 4.15000    1.85     1.89   1.05190
 4.20000    1.85     1.89   1.04570
 4.25000    1.85     1.89   1.04380
 4.30000    1.85     1.89   1.03900
 4.35000    1.86     1.89   1.04120
 4.40000    1.86     1.89   1.03650
 4.45000    1.86     1.89   1.03010
 4.50000    1.86     1.89   1.02970
 4.55000    1.86     1.89   1.02860
 4.60000    1.86     1.89   1.02160
 4.65000    1.86     1.89   1.01530
 4.70000    1.86     1.90   1.01590
 4.75000    1.86     1.90   1.01790
 4.80000    1.86     1.90   1.01220
 4.85000    1.86     1.90   1.01060
 4.90000    1.86     1.90   1.00440
 4.95000    1.86     1.90   1.00740
 5.00000    1.86     1.90   1.01030
 5.05000    1.86     1.90   1.00780
 5.10000    1.86     1.90   1.00620
 5.15000    1.86     1.90   1.00810
 5.20000    1.86     1.90   1.00430
 5.25000    1.86     1.90   0.99980
 5.30000    1.86     1.90   1.00410
 5.35000    1.86     1.90   0.99920
 5.40000    1.86     1.90   1.00100
 5.45000    1.87     1.90   0.99920
 5.50000    1.87     1.90   0.99930
 5.55000    1.87     1.90   0.99870
 5.60000    1.87     1.91   0.99840
 5.65000    1.87     1.91   0.99600
 5.70000    1.87     1.91   0.99950
 5.75000    1.87     1.91   0.99600
 5.80000    1.87     1.91   0.99400
 5.85000    1.87     1.91   0.99450
 5.90000    1.87     1.91   0.99040
 5.95000    1.87     1.91   0.98850
 6.00000    1.87     1.91   0.99220
 6.05000    1.87     1.91   0.99280
 6.10000    1.87     1.91   0.99210
 6.15000    1.87     1.91   0.99390
 6.20000    1.87     1.91   0.99490
 6.25000    1.87     1.91   0.98800
 6.30000    1.87     1.91   0.98490
 6.35000    1.87     1.91   0.98590
 6.40000    1.87     1.91   0.98630
 6.45000    1.87     1.91   0.98840
 6.50000    1.87     1.91   0.98640
 6.55000    1.87     1.91   0.98660
 6.60000    1.87     1.92   0.98720
 6.65000    1.87     1.92   0.98550
 6.70000    1.87     1.92   0.98740
 6.75000    1.88     1.92   0.98460
 6.80000    1.88     1.92   0.98630
 6.85000    1.88     1.92   0.98320
 6.90000    1.88     1.92   0.98190
 6.95000    1.88     1.92   0.98180
 7.00000    1.88     1.92   0.98380
