 Field[T] Tsmpl[K] Tcntr[K] SignalIntensity   Mirror[MM]
 0.00000    1.87     1.87   0.64271  6.6940
 0.05000    1.87     1.87   0.64584  6.6940
 0.10000    1.87     1.87   0.64786  6.6940
 0.15000    1.87     1.87   0.65109  6.6940
 0.20000    1.87     1.87   0.65315  6.6940
 0.25000    1.87     1.87   0.65704  6.6940
 0.30000    1.87     1.87   0.65816  6.6940
 0.35000    1.87     1.87   0.65863  6.6940
 0.40000    1.87     1.87   0.66043  6.6940
 0.45000    1.87     1.87   0.66453  6.6940
 0.50000    1.87     1.87   0.66550  6.6940
 0.55000    1.87     1.87   0.66783  6.6940
 0.60000    1.87     1.87   0.67070  6.6940
 0.65000    1.87     1.87   0.67402  6.6940
 0.70000    1.87     1.87   0.67572  6.6940
 0.75000    1.87     1.87   0.67876  6.6940
 0.80000    1.87     1.87   0.67980  6.6940
 0.85000    1.87     1.87   0.68082  6.6940
 0.90000    1.87     1.87   0.68457  6.6940
 0.95000    1.87     1.87   0.68905  6.6940
 1.00000    1.87     1.87   0.69020  6.6940
 1.05000    1.87     1.87   0.69367  6.6940
 1.10000    1.87     1.87   0.69361  6.6940
 1.15000    1.87     1.87   0.69561  6.6940
 1.20000    1.87     1.87   0.69799  6.6940
 1.25000    1.87     1.87   0.69816  6.6940
 1.30000    1.87     1.87   0.70045  6.6940
 1.35000    1.87     1.87   0.70136  6.6940
 1.40000    1.87     1.87   0.70562  6.6945
 1.45000    1.87     1.87   0.70585  6.6945
 1.50000    1.87     1.87   0.70881  6.6945
 1.55000    1.87     1.87   0.71191  6.6945
 1.60000    1.87     1.87   0.71193  6.6945
 1.65000    1.87     1.87   0.71452  6.6945
 1.70000    1.87     1.87   0.71473  6.6945
 1.75000    1.87     1.87   0.71717  6.6945
 1.80000    1.87     1.87   0.71754  6.6945
 1.85000    1.87     1.87   0.72109  6.6950
 1.90000    1.87     1.87   0.72072  6.6950
 1.95000    1.87     1.87   0.72374  6.6950
 2.00000    1.87     1.87   0.72362  6.6950
 2.05000    1.87     1.87   0.72691  6.6955
 2.10000    1.87     1.87   0.72899  6.6955
 2.15000    1.87     1.87   0.73020  6.6955
 2.20000    1.87     1.87   0.72880  6.6955
 2.25000    1.87     1.87   0.72894  6.6955
 2.30000    1.87     1.87   0.73000  6.6955
 2.35000    1.87     1.87   0.72932  6.6955
 2.40000    1.87     1.87   0.73046  6.6960
 2.45000    1.87     1.87   0.73176  6.6960
 2.50000    1.87     1.87   0.73373  6.6960
 2.55000    1.87     1.87   0.73611  6.6960
 2.60000    1.87     1.87   0.73927  6.6960
 2.65000    1.87     1.87   0.73828  6.6960
 2.70000    1.87     1.87   0.73852  6.6960
 2.75000    1.87     1.87   0.74168  6.6960
 2.80000    1.87     1.87   0.74213  6.6960
 2.85000    1.87     1.87   0.74341  6.6960
 2.90000    1.87     1.87   0.74584  6.6963
 2.95000    1.87     1.87   0.74686  6.6965
 3.00000    1.87     1.87   0.75009  6.6965
 3.05000    1.87     1.87   0.75152  6.6965
 3.10000    1.87     1.87   0.75408  6.6965
 3.15000    1.87     1.87   0.75514  6.6965
 3.20000    1.87     1.87   0.75706  6.6968
 3.25000    1.87     1.87   0.75782  6.6970
 3.30000    1.87     1.87   0.76126  6.6970
 3.35000    1.87     1.87   0.76250  6.6970
 3.40000    1.87     1.87   0.76704  6.6975
 3.45000    1.87     1.87   0.76584  6.6975
 3.50000    1.87     1.87   0.76704  6.6975
 3.55000    1.87     1.87   0.77037  6.6975
 3.60000    1.87     1.87   0.77278  6.6975
 3.65000    1.87     1.87   0.77810  6.6975
 3.70000    1.87     1.87   0.77863  6.6976
 3.75000    1.87     1.87   0.77867  6.6980
 3.80000    1.87     1.87   0.78040  6.6980
 3.85000    1.87     1.87   0.78004  6.6980
 3.90000    1.87     1.87   0.78241  6.6980
 3.95000    1.87     1.87   0.78556  6.6980
 4.00000    1.87     1.87   0.78641  6.6985
 4.05000    1.87     1.87   0.78988  6.6985
 4.10000    1.87     1.87   0.79224  6.6985
 4.15000    1.87     1.87   0.79336  6.6985
 4.20000    1.87     1.87   0.79374  6.6985
 4.25000    1.87     1.87   0.79999  6.6985
 4.30000    1.87     1.87   0.79947  6.6985
 4.35000    1.87     1.87   0.79723  6.6985
 4.40000    1.87     1.87   0.79741  6.6990
 4.45000    1.87     1.87   0.79706  6.6995
 4.50000    1.87     1.87   0.79607  6.6995
 4.55000    1.87     1.87   0.79838  6.6995
 4.60000    1.87     1.87   0.79857  6.6995
 4.65000    1.87     1.87   0.80117  6.6995
 4.70000    1.87     1.87   0.80308  6.6995
 4.75000    1.87     1.87   0.80508  6.6995
 4.80000    1.87     1.87   0.80558  6.6995
 4.85000    1.87     1.87   0.80827  6.6995
 4.90000    1.87     1.87   0.80827  6.6995
 4.95000    1.87     1.87   0.81139  6.6995
 5.00000    1.87     1.87   0.81191  6.7000
 5.05000    1.87     1.87   0.81369  6.7000
 5.10000    1.87     1.87   0.81443  6.7000
 5.15000    1.87     1.87   0.81745  6.7005
 5.20000    1.87     1.87   0.82127  6.7005
 5.25000    1.87     1.87   0.82104  6.7005
 5.30000    1.87     1.87   0.82494  6.7005
 5.35000    1.87     1.87   0.82714  6.7005
 5.40000    1.87     1.87   0.82708  6.7005
 5.45000    1.87     1.87   0.83021  6.7010
 5.50000    1.87     1.87   0.83311  6.7010
 5.55000    1.87     1.87   0.83538  6.7010
 5.60000    1.87     1.87   0.84256  6.7010
 5.65000    1.87     1.87   0.84412  6.7010
 5.70000    1.87     1.87   0.84828  6.7010
 5.75000    1.87     1.87   0.84903  6.7010
 5.80000    1.87     1.87   0.84633  6.7015
 5.85000    1.87     1.87   0.84789  6.7015
 5.90000    1.87     1.87   0.84765  6.7020
 5.95000    1.87     1.87   0.85012  6.7020
 6.00000    1.87     1.87   0.85246  6.7020
 6.05000    1.87     1.87   0.85200  6.7020
 6.10000    1.87     1.87   0.85435  6.7020
 6.15000    1.87     1.87   0.85786  6.7030
 6.20000    1.87     1.87   0.85729  6.7030
 6.25000    1.87     1.87   0.85946  6.7030
 6.30000    1.87     1.87   0.86269  6.7030
 6.35000    1.87     1.87   0.86646  6.7030
 6.40000    1.87     1.87   0.86818  6.7033
 6.45000    1.87     1.87   0.86861  6.7040
 6.50000    1.87     1.87   0.87142  6.7040
 6.55000    1.87     1.87   0.87286  6.7040
 6.60000    1.87     1.87   0.87520  6.7040
 6.65000    1.87     1.87   0.87572  6.7040
 6.70000    1.87     1.87   0.87709  6.7044
 6.75000    1.87     1.87   0.88341  6.7045
 6.80000    1.87     1.87   0.88319  6.7050
 6.85000    1.87     1.87   0.88191  6.7050
 6.90000    1.87     1.87   0.88319  6.7050
 6.95000    1.87     1.87   0.88065  6.7050
 7.00000    1.87     1.87   0.88016  6.7053
 7.00000    1.87     1.87   0.88026  6.7058
 6.95000    1.87     1.87   0.88185  6.7060
 6.90000    1.87     1.87   0.88277  6.7055
 6.85000    1.87     1.87   0.87979  6.7055
 6.80000    1.87     1.87   0.87716  6.7050
 6.75000    1.87     1.87   0.87432  6.7050
 6.70000    1.87     1.87   0.87623  6.7045
 6.65000    1.87     1.87   0.87394  6.7045
 6.60000    1.87     1.87   0.87295  6.7045
 6.55000    1.87     1.87   0.87004  6.7040
 6.50000    1.87     1.87   0.86754  6.7040
 6.45000    1.87     1.87   0.86602  6.7040
 6.40000    1.87     1.87   0.86590  6.7040
 6.35000    1.87     1.87   0.86208  6.7035
 6.30000    1.87     1.87   0.86267  6.7035
 6.25000    1.87     1.87   0.86083  6.7035
 6.20000    1.87     1.87   0.85901  6.7030
 6.15000    1.87     1.87   0.85812  6.7030
 6.10000    1.87     1.87   0.85979  6.7028
 6.05000    1.87     1.87   0.85620  6.7025
 6.00000    1.87     1.87   0.85770  6.7025
 5.95000    1.87     1.87   0.85540  6.7020
 5.90000    1.87     1.87   0.85391  6.7020
 5.85000    1.87     1.87   0.85278  6.7020
 5.80000    1.87     1.87   0.85174  6.7015
 5.75000    1.87     1.87   0.85067  6.7015
 5.70000    1.87     1.87   0.84997  6.7010
 5.65000    1.87     1.87   0.84771  6.7010
 5.60000    1.87     1.87   0.84612  6.7010
 5.55000    1.87     1.87   0.84331  6.7010
 5.50000    1.87     1.87   0.84028  6.7010
 5.45000    1.87     1.87   0.83803  6.7010
 5.40000    1.87     1.87   0.83865  6.7010
 5.35000    1.87     1.87   0.83766  6.7010
 5.30000    1.87     1.87   0.83841  6.7010
 5.25000    1.87     1.87   0.83428  6.7010
 5.20000    1.87     1.87   0.83613  6.7010
 5.15000    1.87     1.87   0.83262  6.7010
 5.10000    1.87     1.87   0.82683  6.7008
 5.05000    1.87     1.87   0.82523  6.7005
 5.00000    1.87     1.87   0.82142  6.7005
 4.95000    1.87     1.87   0.81798  6.7000
 4.90000    1.87     1.87   0.81707  6.7000
 4.85000    1.87     1.87   0.81628  6.7000
 4.80000    1.87     1.87   0.81326  6.7000
 4.75000    1.87     1.87   0.81160  6.6995
 4.70000    1.87     1.87   0.81090  6.6995
 4.65000    1.87     1.87   0.81061  6.6995
 4.60000    1.87     1.87   0.80847  6.6995
 4.55000    1.87     1.87   0.80784  6.6995
 4.50000    1.87     1.87   0.80912  6.6995
 4.45000    1.87     1.87   0.80572  6.6990
 4.40000    1.87     1.87   0.80395  6.6990
 4.35000    1.87     1.87   0.80343  6.6990
 4.30000    1.87     1.87   0.80473  6.6990
 4.25000    1.87     1.87   0.80348  6.6990
 4.20000    1.87     1.87   0.80368  6.6990
 4.15000    1.87     1.87   0.80214  6.6990
 4.10000    1.87     1.87   0.79834  6.6990
 4.05000    1.87     1.87   0.79700  6.6987
 4.00000    1.87     1.87   0.79677  6.6985
 3.95000    1.87     1.87   0.79495  6.6985
 3.90000    1.87     1.87   0.79242  6.6982
 3.85000    1.87     1.87   0.79393  6.6980
 3.80000    1.87     1.87   0.79132  6.6980
 3.75000    1.87     1.87   0.79036  6.6980
 3.70000    1.87     1.87   0.79144  6.6980
 3.65000    1.87     1.87   0.79096  6.6980
 3.60000    1.87     1.87   0.79240  6.6980
 3.55000    1.87     1.87   0.78830  6.6980
 3.50000    1.87     1.87   0.78471  6.6975
 3.45000    1.87     1.87   0.78501  6.6975
 3.40000    1.87     1.87   0.78230  6.6975
 3.35000    1.87     1.87   0.78227  6.6975
 3.30000    1.87     1.87   0.78117  6.6975
 3.25000    1.87     1.87   0.78066  6.6975
 3.20000    1.87     1.87   0.77886  6.6970
 3.15000    1.87     1.87   0.77886  6.6970
 3.10000    1.87     1.87   0.77674  6.6965
 3.05000    1.87     1.87   0.77826  6.6965
 3.00000    1.87     1.87   0.77641  6.6965
 2.95000    1.87     1.87   0.77180  6.6965
 2.90000    1.87     1.87   0.77166  6.6965
 2.85000    1.87     1.87   0.76568  6.6965
 2.80000    1.87     1.87   0.76312  6.6965
 2.75000    1.87     1.87   0.76374  6.6965
 2.70000    1.87     1.87   0.76171  6.6965
 2.65000    1.87     1.87   0.76223  6.6965
 2.60000    1.87     1.87   0.76110  6.6965
 2.55000    1.87     1.87   0.76024  6.6965
 2.50000    1.87     1.87   0.75946  6.6965
 2.45000    1.87     1.87   0.76113  6.6965
 2.40000    1.87     1.87   0.76021  6.6965
 2.35000    1.87     1.87   0.76477  6.6965
 2.30000    1.87     1.87   0.76014  6.6965
 2.25000    1.87     1.87   0.75370  6.6965
 2.20000    1.87     1.87   0.75106  6.6965
 2.15000    1.87     1.87   0.75039  6.6960
 2.10000    1.87     1.87   0.74634  6.6960
 2.05000    1.87     1.87   0.74449  6.6960
 2.00000    1.87     1.87   0.74401  6.6960
 1.95000    1.87     1.87   0.74025  6.6960
 1.90000    1.87     1.87   0.73733  6.6960
 1.85000    1.87     1.87   0.73706  6.6965
 1.80000    1.87     1.87   0.73841  6.6965
 1.75000    1.87     1.87   0.73824  6.6952
 1.70000    1.87     1.87   0.73821  6.6957
 1.65000    1.87     1.87   0.73704  6.6950
 1.60000    1.87     1.87   0.73436  6.6955
 1.55000    1.87     1.87   0.73486  6.6951
 1.50000    1.87     1.87   0.73579  6.6950
 1.45000    1.87     1.87   0.73383  6.6950
 1.40000    1.87     1.87   0.73161  6.6950
 1.35000    1.87     1.87   0.73409  6.6959
 1.30000    1.87     1.87   0.73301  6.6950
 1.25000    1.87     1.87   0.73460  6.6945
 1.20000    1.87     1.87   0.73474  6.6945
 1.15000    1.87     1.87   0.73318  6.6945
 1.10000    1.87     1.87   0.73258  6.6945
 1.05000    1.87     1.87   0.73337  6.6945
 1.00000    1.87     1.87   0.73063  6.6945
 0.95000    1.87     1.87   0.72938  6.6945
 0.90000    1.87     1.87   0.72925  6.6945
 0.85000    1.87     1.87   0.73058  6.6945
 0.80000    1.87     1.87   0.73094  6.6945
 0.75000    1.87     1.87   0.73953  6.6945
 0.70000    1.87     1.87   0.73852  6.6945
 0.65000    1.87     1.87   0.73056  6.6945
 0.60000    1.87     1.87   0.72628  6.6945
 0.55000    1.87     1.87   0.72488  6.6945
 0.50000    1.87     1.87   0.71846  6.6945
 0.45000    1.87     1.87   0.71408  6.6945
 0.40000    1.87     1.87   0.71404  6.6945
 0.35000    1.87     1.87   0.71169  6.6945
 0.30000    1.87     1.87   0.70991  6.6945
 0.25000    1.87     1.87   0.71062  6.6945
 0.20000    1.87     1.87   0.70947  6.6945
 0.15000    1.87     1.87   0.70925  6.6945
 0.10000    1.87     1.87   0.70869  6.6945
 0.05000    1.87     1.87   0.70641  6.6945
 -0.00000    1.87     1.87   0.70698  6.6945
