 Field[T] Tsmpl[K] Tcntr[K] Signal   Mirror[MM]
 0.00000    5.25     2.97   1.49144  1.0201
 0.05000    5.25     2.98   1.49111  1.0203
 0.10000    5.25     2.97   1.49041  1.0205
 0.15000    5.25     2.98   1.49012  1.0209
 0.20000    5.25     2.97   1.48962  1.0211
 0.25000    5.25     2.97   1.48952  1.0212
 0.30000    5.25     2.97   1.48903  1.0215
 0.35000    5.25     2.97   1.48811  1.0217
 0.40000    5.25     2.98   1.48750  1.0221
 0.45000    5.25     2.97   1.48691  1.0224
 0.50000    5.26     2.97   1.48622  1.0226
 0.55000    5.26     2.97   1.48573  1.0227
 0.60000    5.26     2.97   1.48506  1.0229
 0.65000    5.27     2.96   1.48410  1.0231
 0.70000    5.27     2.97   1.48334  1.0234
 0.75000    5.27     2.96   1.48232  1.0237
 0.80000    5.26     2.96   1.48157  1.0238
 0.85000    5.26     2.97   1.47928  1.0242
 0.90000    5.25     2.95   1.47778  1.0242
 0.95000    5.23     2.95   1.47608  1.0240
 1.00000    5.21     2.95   1.47436  1.0240
 1.05000    5.20     2.94   1.47319  1.0238
 1.10000    5.19     2.95   1.47218  1.0235
 1.15000    5.17     2.94   1.47240  1.0233
 1.20000    5.16     2.94   1.47305  1.0232
 1.25000    5.15     2.91   1.47453  1.0230
 1.30000    5.12     2.94   1.47513  1.0231
 1.35000    5.12     2.92   1.47676  1.0231
 1.40000    5.11     2.93   1.47795  1.0232
 1.45000    5.10     2.94   1.47862  1.0234
 1.50000    5.10     2.93   1.47893  1.0234
 1.55000    5.10     2.92   1.47928  1.0235
 1.60000    5.09     2.93   1.47913  1.0237
 1.65000    5.10     2.94   1.48008  1.0237
 1.70000    5.11     2.94   1.48036  1.0238
 1.75000    5.12     2.94   1.48011  1.0239
 1.80000    5.13     2.96   1.48016  1.0239
 1.85000    5.14     2.95   1.48021  1.0240
 1.90000    5.15     2.98   1.48050  1.0241
 1.95000    5.15     2.97   1.48056  1.0241
 2.00000    5.15     2.99   1.48059  1.0241
 2.05000    5.16     2.97   1.48035  1.0241
 2.10000    5.15     2.98   1.48005  1.0242
 2.15000    5.14     2.97   1.48027  1.0242
 2.20000    5.14     2.99   1.48017  1.0244
 2.25000    5.13     2.99   1.47985  1.0243
 2.30000    5.11     2.98   1.48017  1.0248
 2.35000    5.10     2.98   1.47974  1.0249
 2.40000    5.09     3.00   1.47935  1.0250
 2.45000    5.09     2.99   1.47926  1.0247
 2.50000    5.07     2.99   1.47942  1.0247
 2.55000    5.06     2.98   1.47926  1.0244
 2.60000    5.04     2.99   1.47887  1.0245
 2.65000    5.03     3.00   1.47861  1.0248
 2.70000    5.02     3.01   1.47861  1.0247
 2.75000    5.01     2.99   1.47807  1.0248
 2.80000    5.01     3.00   1.47754  1.0248
 2.85000    5.01     3.00   1.47746  1.0248
 2.90000    5.01     3.00   1.47729  1.0248
 2.95000    5.01     3.02   1.47723  1.0246
 3.00000    5.02     3.00   1.47672  1.0245
 3.00000    5.02     3.01   1.47681  1.0245
 2.95000    5.02     3.01   1.47689  1.0245
 2.90000    5.03     3.01   1.47711  1.0245
 2.85000    5.03     3.01   1.47742  1.0246
 2.80000    5.05     3.03   1.47738  1.0245
 2.75000    5.06     3.01   1.47747  1.0246
 2.70000    5.07     3.02   1.47702  1.0248
 2.65000    5.08     3.04   1.47764  1.0248
 2.60000    5.10     3.03   1.47769  1.0248
 2.55000    5.12     3.06   1.47808  1.0246
 2.50000    5.14     3.04   1.47830  1.0245
 2.45000    5.15     3.05   1.47835  1.0245
 2.40000    5.17     3.05   1.47832  1.0245
 2.35000    5.18     3.06   1.47817  1.0245
 2.30000    5.21     3.07   1.47877  1.0244
 2.25000    5.23     3.06   1.47885  1.0245
 2.20000    5.24     3.06   1.47872  1.0246
 2.15000    5.26     3.07   1.47922  1.0244
 2.10000    5.27     3.07   1.47924  1.0244
 2.05000    5.28     3.07   1.47904  1.0245
 2.00000    5.29     3.05   1.47948  1.0245
 1.95000    5.30     3.07   1.47951  1.0245
 1.90000    5.31     3.06   1.47913  1.0244
 1.85000    5.32     3.06   1.47919  1.0245
 1.80000    5.33     3.07   1.47892  1.0243
 1.75000    5.34     3.06   1.47844  1.0243
 1.70000    5.35     3.05   1.47899  1.0243
 1.65000    5.36     3.06   1.47891  1.0240
 1.60000    5.37     3.04   1.47836  1.0240
 1.55000    5.37     3.04   1.47843  1.0238
 1.50000    5.38     3.03   1.47799  1.0238
 1.45000    5.38     3.04   1.47747  1.0236
 1.40000    5.38     3.04   1.47675  1.0236
 1.35000    5.39     3.04   1.47533  1.0237
 1.30000    5.40     3.04   1.47427  1.0237
 1.25000    5.40     3.02   1.47314  1.0239
 1.20000    5.40     3.02   1.47266  1.0239
 1.15000    5.39     3.02   1.47158  1.0241
 1.10000    5.39     3.02   1.47107  1.0240
 1.05000    5.39     3.02   1.47219  1.0243
 1.00000    5.38     3.00   1.47295  1.0245
 0.95000    5.38     3.01   1.47468  1.0246
 0.90000    5.37     3.01   1.47616  1.0248
 0.85000    5.37     3.01   1.47848  1.0248
 0.80000    5.36     3.01   1.48001  1.0244
 0.75000    5.36     3.00   1.48117  1.0243
 0.70000    5.35     3.00   1.48224  1.0242
 0.65000    5.35     3.00   1.48342  1.0240
 0.60000    5.34     3.02   1.48409  1.0236
 0.55000    5.34     3.01   1.48458  1.0236
 0.50000    5.33     3.00   1.48598  1.0233
 0.45000    5.33     3.00   1.48640  1.0231
 0.40000    5.33     3.02   1.48653  1.0229
 0.35000    5.33     3.00   1.48743  1.0226
 0.30000    5.32     3.00   1.48765  1.0223
 0.25000    5.31     3.00   1.48789  1.0221
 0.20000    5.31     3.00   1.48872  1.0219
 0.15000    5.30     3.01   1.48888  1.0218
 0.10000    5.30     2.99   1.48928  1.0215
 0.05000    5.29     2.99   1.48987  1.0210
-0.00000    5.28     3.00   1.49006  1.0209
