 Field[T] Tsmpl[K] Tcntr[K] Signal   Mirror[MM]
 0.00000    1.79     1.79   0.15199  -23.6028
 0.05000    1.79     1.79   0.15260  -23.6032
 0.10000    1.79     1.79   0.15170  -23.6032
 0.15000    1.79     1.79   0.14967  -23.6036
 0.20000    1.79     1.79   0.14837  -23.6034
 0.25000    1.79     1.79   0.14646  -23.6041
 0.30000    1.79     1.79   0.14192  -23.6050
 0.35000    1.79     1.79   0.13688  -23.6082
 0.40000    1.79     1.79   0.13011  -23.6184
 0.45000    1.79     1.79   0.12634  -23.6484
 0.50000    1.79     1.79   0.12595  -23.6715
 0.55000    1.79     1.79   0.12890  -23.6895
 0.60000    1.79     1.79   0.13254  -23.7050
 0.65000    1.79     1.79   0.13525  -23.7181
 0.70000    1.79     1.79   0.13899  -23.7289
 0.75000    1.79     1.79   0.14396  -23.7374
 0.80000    1.79     1.79   0.14842  -23.7442
 0.85000    1.79     1.79   0.15265  -23.7477
 0.90000    1.79     1.79   0.15767  -23.7468
 0.95000    1.79     1.79   0.16107  -23.7454
 1.00000    1.79     1.79   0.16280  -23.7448
 1.05000    1.79     1.79   0.16522  -23.7434
 1.10000    1.79     1.79   0.16757  -23.7419
 1.15000    1.79     1.79   0.16872  -23.7412
 1.20000    1.79     1.79   0.16937  -23.7407
 1.25000    1.79     1.79   0.17138  -23.7394
 1.30000    1.79     1.79   0.17292  -23.7388
 1.35000    1.79     1.79   0.17319  -23.7386
 1.40000    1.79     1.79   0.17417  -23.7379
 1.45000    1.79     1.79   0.17581  -23.7365
 1.50000    1.79     1.79   0.17601  -23.7359
 1.55000    1.79     1.79   0.17589  -23.7354
 1.60000    1.79     1.79   0.17743  -23.7343
 1.65000    1.79     1.79   0.17789  -23.7334
 1.70000    1.79     1.79   0.17770  -23.7331
 1.75000    1.79     1.79   0.17854  -23.7325
 1.80000    1.79     1.79   0.17932  -23.7315
 1.85000    1.79     1.79   0.17921  -23.7314
 1.90000    1.79     1.79   0.17891  -23.7307
 1.95000    1.79     1.79   0.17986  -23.7297
 2.00000    1.79     1.79   0.18015  -23.7288
 2.05000    1.79     1.79   0.17932  -23.7293
 2.10000    1.79     1.79   0.17979  -23.7280
 2.15000    1.79     1.79   0.18057  -23.7271
 2.20000    1.79     1.79   0.18021  -23.7272
 2.25000    1.79     1.79   0.17978  -23.7272
 2.30000    1.79     1.79   0.18082  -23.7266
 2.35000    1.79     1.79   0.18093  -23.7257
 2.40000    1.79     1.79   0.18015  -23.7259
 2.45000    1.79     1.79   0.18045  -23.7257
 2.50000    1.79     1.79   0.18088  -23.7252
 2.55000    1.79     1.79   0.18065  -23.7252
 2.60000    1.79     1.79   0.18009  -23.7254
 2.65000    1.79     1.79   0.18083  -23.7252
 2.70000    1.79     1.79   0.18111  -23.7246
 2.75000    1.79     1.79   0.18037  -23.7248
 2.80000    1.79     1.79   0.18033  -23.7246
 2.85000    1.79     1.79   0.18110  -23.7242
 2.90000    1.79     1.79   0.18065  -23.7245
 2.95000    1.79     1.79   0.18005  -23.7245
 3.00000    1.79     1.79   0.18055  -23.7239
 3.05000    1.79     1.79   0.18092  -23.7237
 3.10000    1.79     1.79   0.18018  -23.7245
 3.15000    1.79     1.79   0.18015  -23.7241
 3.20000    1.79     1.79   0.18103  -23.7237
 3.25000    1.79     1.79   0.18047  -23.7240
 3.30000    1.79     1.79   0.18000  -23.7245
 3.35000    1.79     1.79   0.18047  -23.7239
 3.40000    1.79     1.79   0.18090  -23.7240
 3.45000    1.79     1.79   0.18025  -23.7244
 3.50000    1.79     1.79   0.17998  -23.7244
 3.55000    1.79     1.79   0.18086  -23.7239
 3.60000    1.79     1.79   0.18055  -23.7241
 3.65000    1.79     1.79   0.18005  -23.7241
 3.70000    1.79     1.79   0.18024  -23.7240
 3.75000    1.79     1.79   0.18083  -23.7232
 3.80000    1.79     1.79   0.18011  -23.7238
 3.85000    1.79     1.79   0.17989  -23.7241
 3.90000    1.79     1.79   0.18049  -23.7235
 3.95000    1.79     1.79   0.18068  -23.7232
 4.00000    1.79     1.79   0.17980  -23.7237
 4.00000    1.79     1.79   0.17978  -23.7237
 3.95000    1.79     1.79   0.18031  -23.7237
 3.90000    1.79     1.79   0.18037  -23.7237
 3.85000    1.79     1.79   0.17957  -23.7240
 3.80000    1.79     1.79   0.17984  -23.7239
 3.75000    1.79     1.79   0.18039  -23.7235
 3.70000    1.79     1.79   0.17983  -23.7241
 3.65000    1.79     1.79   0.17953  -23.7241
 3.60000    1.79     1.79   0.18013  -23.7236
 3.55000    1.79     1.79   0.18024  -23.7238
 3.50000    1.79     1.79   0.17958  -23.7245
 3.45000    1.79     1.79   0.17954  -23.7244
 3.40000    1.79     1.79   0.18006  -23.7241
 3.35000    1.79     1.79   0.17971  -23.7245
 3.30000    1.79     1.79   0.17900  -23.7251
 3.25000    1.79     1.79   0.17959  -23.7250
 3.20000    1.79     1.79   0.17982  -23.7249
 3.15000    1.79     1.79   0.17916  -23.7255
 3.10000    1.79     1.79   0.17899  -23.7257
 3.05000    1.79     1.79   0.17965  -23.7253
 3.00000    1.79     1.79   0.17945  -23.7254
 2.95000    1.79     1.79   0.17876  -23.7262
 2.90000    1.79     1.79   0.17908  -23.7260
 2.85000    1.79     1.79   0.17951  -23.7258
 2.80000    1.79     1.79   0.17897  -23.7265
 2.75000    1.79     1.79   0.17841  -23.7268
 2.70000    1.79     1.79   0.17897  -23.7266
 2.65000    1.79     1.79   0.17918  -23.7264
 2.60000    1.79     1.79   0.17846  -23.7273
 2.55000    1.79     1.79   0.17844  -23.7274
 2.50000    1.79     1.79   0.17898  -23.7272
 2.45000    1.79     1.79   0.17876  -23.7279
 2.40000    1.79     1.79   0.17806  -23.7285
 2.35000    1.79     1.79   0.17841  -23.7285
 2.30000    1.79     1.79   0.17878  -23.7285
 2.25000    1.79     1.79   0.17804  -23.7293
 2.20000    1.79     1.79   0.17765  -23.7296
 2.15000    1.79     1.79   0.17819  -23.7296
 2.10000    1.79     1.79   0.17797  -23.7303
 2.05000    1.79     1.79   0.17713  -23.7313
 2.00000    1.79     1.79   0.17712  -23.7317
 1.95000    1.79     1.79   0.17734  -23.7316
 1.90000    1.79     1.79   0.17662  -23.7326
 1.85000    1.79     1.79   0.17567  -23.7333
 1.80000    1.79     1.79   0.17595  -23.7336
 1.75000    1.79     1.79   0.17596  -23.7339
 1.70000    1.79     1.79   0.17469  -23.7352
 1.65000    1.79     1.79   0.17378  -23.7361
 1.60000    1.79     1.79   0.17411  -23.7362
 1.55000    1.79     1.79   0.17355  -23.7369
 1.50000    1.79     1.79   0.17204  -23.7384
 1.45000    1.79     1.79   0.17120  -23.7390
 1.40000    1.79     1.79   0.17112  -23.7392
 1.35000    1.79     1.79   0.16998  -23.7399
 1.30000    1.79     1.79   0.16820  -23.7412
 1.25000    1.79     1.79   0.16726  -23.7417
 1.20000    1.79     1.79   0.16671  -23.7418
 1.15000    1.79     1.79   0.16481  -23.7430
 1.10000    1.79     1.79   0.16279  -23.7442
 1.05000    1.79     1.79   0.16172  -23.7449
 1.00000    1.79     1.79   0.15981  -23.7457
 0.95000    1.79     1.79   0.15648  -23.7477
 0.90000    1.79     1.79   0.15340  -23.7491
 0.85000    1.79     1.79   0.14994  -23.7486
 0.80000    1.79     1.79   0.14528  -23.7459
 0.75000    1.79     1.79   0.13986  -23.7404
 0.70000    1.79     1.79   0.13551  -23.7320
 0.65000    1.79     1.79   0.13242  -23.7207
 0.60000    1.79     1.79   0.12876  -23.7090
 0.55000    1.79     1.79   0.12489  -23.6949
 0.50000    1.79     1.79   0.12316  -23.6767
 0.45000    1.79     1.79   0.12295  -23.6543
 0.40000    1.79     1.79   0.12432  -23.6249
 0.35000    1.79     1.79   0.13121  -23.6117
 0.30000    1.79     1.79   0.13695  -23.6082
 0.25000    1.79     1.79   0.14103  -23.6070
 0.20000    1.79     1.79   0.14287  -23.6067
 0.15000    1.79     1.79   0.14427  -23.6064
 0.10000    1.79     1.79   0.14624  -23.6060
 0.05000    1.79     1.79   0.14706  -23.6059
 -0.00000    1.79     1.79   0.14662  -23.6056
