 Field[T] Tsmpl[K] Tcntr[K] Signal   Mirror[MM]
 0.00000    1.77     1.77   0.12967  -23.5925
 0.05000    1.77     1.77   0.13020  -23.5911
 0.10000    1.77     1.77   0.12852  -23.5925
 0.15000    1.77     1.77   0.12676  -23.5939
 0.20000    1.77     1.77   0.12505  -23.5972
 0.25000    1.77     1.77   0.12055  -23.6014
 0.30000    1.77     1.77   0.11520  -23.6125
 0.35000    1.77     1.77   0.11125  -23.6447
 0.40000    1.77     1.77   0.11213  -23.6727
 0.45000    1.77     1.77   0.11515  -23.6944
 0.50000    1.77     1.77   0.11942  -23.7121
 0.55000    1.77     1.77   0.12258  -23.7288
 0.60000    1.77     1.77   0.12697  -23.7424
 0.65000    1.77     1.77   0.13225  -23.7504
 0.70000    1.77     1.77   0.13754  -23.7596
 0.75000    1.77     1.77   0.14282  -23.7622
 0.80000    1.77     1.77   0.14901  -23.7609
 0.85000    1.77     1.77   0.15258  -23.7577
 0.90000    1.77     1.77   0.15524  -23.7556
 0.95000    1.77     1.77   0.15859  -23.7526
 1.00000    1.77     1.77   0.16018  -23.7505
 1.05000    1.77     1.77   0.16169  -23.7490
 1.10000    1.77     1.77   0.16409  -23.7465
 1.15000    1.77     1.77   0.16469  -23.7451
 1.20000    1.77     1.77   0.16587  -23.7437
 1.25000    1.77     1.77   0.16789  -23.7414
 1.30000    1.77     1.77   0.16851  -23.7405
 1.35000    1.77     1.77   0.16851  -23.7380
 1.40000    1.77     1.77   0.17100  -23.7370
 1.45000    1.77     1.77   0.17107  -23.7356
 1.50000    1.77     1.77   0.17197  -23.7357
 1.55000    1.77     1.77   0.17317  -23.7337
 1.60000    1.77     1.77   0.17333  -23.7337
 1.65000    1.77     1.77   0.17316  -23.7329
 1.70000    1.77     1.77   0.17480  -23.7315
 1.75000    1.77     1.77   0.17477  -23.7306
 1.80000    1.77     1.77   0.17424  -23.7302
 1.85000    1.77     1.77   0.17530  -23.7289
 1.90000    1.77     1.77   0.17520  -23.7274
 1.95000    1.77     1.77   0.17476  -23.7265
 2.00000    1.77     1.77   0.17574  -23.7261
 2.05000    1.77     1.77   0.17577  -23.7258
 2.10000    1.77     1.77   0.17565  -23.7267
 2.15000    1.77     1.77   0.17623  -23.7248
 2.20000    1.77     1.77   0.17610  -23.7247
 2.25000    1.77     1.77   0.17554  -23.7245
 2.30000    1.77     1.77   0.17642  -23.7231
 2.35000    1.77     1.77   0.17665  -23.7232
 2.40000    1.77     1.77   0.17630  -23.7244
 2.45000    1.77     1.77   0.17669  -23.7231
 2.50000    1.77     1.77   0.17691  -23.7226
 2.55000    1.77     1.77   0.17626  -23.7223
 2.60000    1.77     1.77   0.17672  -23.7219
 2.65000    1.77     1.77   0.17704  -23.7211
 2.70000    1.77     1.77   0.17634  -23.7224
 2.75000    1.77     1.77   0.17718  -23.7210
 2.80000    1.77     1.77   0.17723  -23.7211
 2.85000    1.77     1.77   0.17635  -23.7212
 2.90000    1.77     1.77   0.17674  -23.7197
 2.95000    1.77     1.77   0.17723  -23.7181
 3.00000    1.77     1.77   0.17668  -23.7200
 3.05000    1.77     1.77   0.17691  -23.7188
 3.10000    1.77     1.77   0.17765  -23.7195
 3.15000    1.77     1.77   0.17720  -23.7200
 3.20000    1.77     1.77   0.17711  -23.7196
 3.25000    1.77     1.77   0.17774  -23.7188
 3.30000    1.77     1.77   0.17712  -23.7198
 3.35000    1.77     1.77   0.17715  -23.7191
 3.40000    1.77     1.77   0.17796  -23.7191
 3.45000    1.77     1.77   0.17713  -23.7188
 3.50000    1.77     1.77   0.17737  -23.7190
 3.55000    1.77     1.77   0.17813  -23.7181
 3.60000    1.77     1.77   0.17716  -23.7182
 3.65000    1.77     1.77   0.17735  -23.7181
 3.70000    1.77     1.77   0.17780  -23.7170
 3.75000    1.77     1.77   0.17772  -23.7177
 3.80000    1.77     1.77   0.17662  -23.7163
 3.85000    1.77     1.77   0.17777  -23.7151
 3.90000    1.77     1.77   0.17760  -23.7166
 3.95000    1.77     1.77   0.17707  -23.7164
 4.00000    1.77     1.77   0.17839  -23.7179
 4.00000    1.77     1.77   0.17813  -23.7171
 3.95000    1.77     1.77   0.17748  -23.7180
 3.90000    1.77     1.77   0.17800  -23.7158
 3.85000    1.77     1.77   0.17846  -23.7170
 3.80000    1.77     1.77   0.17781  -23.7178
 3.75000    1.77     1.77   0.17846  -23.7175
 3.70000    1.77     1.77   0.17890  -23.7184
 3.65000    1.77     1.77   0.17785  -23.7186
 3.60000    1.77     1.77   0.17854  -23.7186
 3.55000    1.77     1.77   0.17865  -23.7180
 3.50000    1.77     1.77   0.17744  -23.7177
 3.45000    1.77     1.77   0.17836  -23.7181
 3.40000    1.77     1.77   0.17884  -23.7179
 3.35000    1.77     1.77   0.17805  -23.7187
 3.30000    1.77     1.77   0.17710  -23.7143
 3.25000    1.77     1.77   0.17876  -23.7179
 3.20000    1.77     1.77   0.17818  -23.7184
 3.15000    1.77     1.77   0.17823  -23.7186
 3.10000    1.77     1.77   0.17897  -23.7190
 3.05000    1.77     1.77   0.17786  -23.7194
 3.00000    1.77     1.77   0.17788  -23.7177
 2.95000    1.77     1.77   0.17883  -23.7176
 2.90000    1.77     1.77   0.17799  -23.7186
 2.85000    1.77     1.77   0.17825  -23.7197
 2.80000    1.77     1.77   0.17903  -23.7191
 2.75000    1.77     1.77   0.17839  -23.7203
 2.70000    1.77     1.77   0.17817  -23.7203
 2.65000    1.77     1.77   0.17886  -23.7203
 2.60000    1.77     1.77   0.17827  -23.7209
 2.55000    1.77     1.77   0.17794  -23.7209
 2.50000    1.77     1.77   0.17852  -23.7211
 2.45000    1.77     1.77   0.17814  -23.7217
 2.40000    1.77     1.77   0.17756  -23.7227
 2.35000    1.77     1.77   0.17840  -23.7215
 2.30000    1.77     1.77   0.17775  -23.7221
 2.25000    1.77     1.77   0.17724  -23.7228
 2.20000    1.77     1.77   0.17808  -23.7224
 2.15000    1.77     1.77   0.17790  -23.7232
 2.10000    1.77     1.77   0.17671  -23.7240
 2.05000    1.77     1.77   0.17702  -23.7220
 2.00000    1.77     1.77   0.17623  -23.7213
 1.95000    1.77     1.77   0.17611  -23.7239
 1.90000    1.77     1.77   0.17719  -23.7265
 1.85000    1.77     1.77   0.17733  -23.7274
 1.80000    1.77     1.77   0.17641  -23.7289
 1.75000    1.77     1.77   0.17673  -23.7291
 1.70000    1.77     1.77   0.17649  -23.7294
 1.65000    1.77     1.77   0.17498  -23.7306
 1.60000    1.77     1.77   0.17482  -23.7310
 1.55000    1.77     1.77   0.17486  -23.7325
 1.50000    1.77     1.77   0.17360  -23.7347
 1.45000    1.77     1.77   0.17328  -23.7351
 1.40000    1.77     1.77   0.17280  -23.7355
 1.35000    1.77     1.77   0.17137  -23.7384
 1.30000    1.77     1.77   0.17035  -23.7391
 1.25000    1.77     1.77   0.16998  -23.7408
 1.20000    1.77     1.77   0.16812  -23.7426
 1.15000    1.77     1.77   0.16692  -23.7428
 1.10000    1.77     1.77   0.16616  -23.7440
 1.05000    1.77     1.77   0.16383  -23.7465
 1.00000    1.77     1.77   0.16201  -23.7486
 0.95000    1.77     1.77   0.16064  -23.7495
 0.90000    1.77     1.77   0.15776  -23.7532
 0.85000    1.77     1.77   0.15471  -23.7563
 0.80000    1.77     1.77   0.15153  -23.7583
 0.75000    1.77     1.77   0.14557  -23.7601
 0.70000    1.77     1.77   0.13970  -23.7587
 0.65000    1.77     1.77   0.13486  -23.7510
 0.60000    1.77     1.77   0.12932  -23.7410
 0.55000    1.77     1.77   0.12439  -23.7288
 0.50000    1.77     1.77   0.12113  -23.7133
 0.45000    1.77     1.77   0.11739  -23.6964
 0.40000    1.77     1.77   0.11392  -23.6768
 0.35000    1.77     1.77   0.11312  -23.6498
 0.30000    1.77     1.77   0.11598  -23.6151
 0.25000    1.77     1.77   0.12076  -23.6006
 0.20000    1.77     1.77   0.12542  -23.5957
 0.15000    1.77     1.77   0.12880  -23.5937
 0.10000    1.77     1.77   0.12969  -23.5924
 0.05000    1.77     1.77   0.13140  -23.5918
 -0.00000    1.77     1.77   0.13199  -23.5929
