 Field[T] Tsmpl[K] Tcntr[K] Signal   Mirror[MM]
 0.00000    1.76     1.76   0.13278  -23.6749
 0.05000    1.76     1.76   0.13242  -23.6751
 0.10000    1.76     1.76   0.13173  -23.6770
 0.15000    1.76     1.76   0.12877  -23.6827
 0.20000    1.76     1.76   0.12531  -23.6923
 0.25000    1.76     1.76   0.12221  -23.7173
 0.30000    1.76     1.76   0.12322  -23.7471
 0.35000    1.76     1.76   0.12658  -23.7702
 0.40000    1.76     1.76   0.13037  -23.7889
 0.45000    1.76     1.76   0.13288  -23.8046
 0.50000    1.76     1.76   0.13727  -23.8168
 0.55000    1.76     1.76   0.14267  -23.8278
 0.60000    1.76     1.76   0.14622  -23.8357
 0.65000    1.76     1.76   0.15222  -23.8392
 0.70000    1.76     1.76   0.15744  -23.8391
 0.75000    1.76     1.76   0.16027  -23.8358
 0.80000    1.76     1.76   0.16385  -23.8320
 0.85000    1.76     1.76   0.16605  -23.8281
 0.90000    1.76     1.76   0.16727  -23.8257
 0.95000    1.76     1.76   0.16938  -23.8225
 1.00000    1.76     1.76   0.17080  -23.8207
 1.05000    1.76     1.76   0.17127  -23.8191
 1.10000    1.76     1.76   0.17262  -23.8156
 1.15000    1.76     1.76   0.17436  -23.8160
 1.20000    1.76     1.76   0.17457  -23.8150
 1.25000    1.76     1.76   0.17566  -23.8123
 1.30000    1.76     1.76   0.17624  -23.8102
 1.35000    1.76     1.76   0.17639  -23.8097
 1.40000    1.76     1.76   0.17796  -23.8076
 1.45000    1.76     1.76   0.17792  -23.8057
 1.50000    1.76     1.76   0.17763  -23.8051
 1.55000    1.76     1.76   0.17863  -23.8030
 1.60000    1.76     1.76   0.17868  -23.8018
 1.65000    1.76     1.76   0.17875  -23.8017
 1.70000    1.76     1.76   0.17989  -23.8010
 1.75000    1.76     1.76   0.17933  -23.7991
 1.80000    1.76     1.76   0.17927  -23.7981
 1.85000    1.76     1.76   0.18026  -23.7983
 1.90000    1.76     1.76   0.17962  -23.7970
 1.95000    1.76     1.76   0.17946  -23.7969
 2.00000    1.76     1.76   0.18029  -23.7956
 2.05000    1.76     1.76   0.18012  -23.7953
 2.10000    1.76     1.76   0.17996  -23.7959
 2.15000    1.76     1.76   0.18056  -23.7949
 2.20000    1.76     1.76   0.18019  -23.7940
 2.25000    1.76     1.76   0.17996  -23.7941
 2.30000    1.76     1.76   0.18030  -23.7926
 2.35000    1.76     1.76   0.17996  -23.7930
 2.40000    1.76     1.76   0.17982  -23.7929
 2.45000    1.76     1.76   0.18043  -23.7921
 2.50000    1.76     1.76   0.18006  -23.7918
 2.55000    1.76     1.76   0.17986  -23.7915
 2.60000    1.76     1.76   0.18077  -23.7920
 2.65000    1.76     1.76   0.17998  -23.7916
 2.70000    1.76     1.76   0.17988  -23.7915
 2.75000    1.76     1.76   0.18105  -23.7909
 2.80000    1.76     1.76   0.17990  -23.7911
 2.85000    1.76     1.76   0.18006  -23.7905
 2.90000    1.76     1.76   0.18072  -23.7908
 2.95000    1.76     1.76   0.17978  -23.7906
 3.00000    1.76     1.76   0.18010  -23.7911
 3.05000    1.76     1.76   0.18065  -23.7902
 3.10000    1.76     1.76   0.17971  -23.7906
 3.15000    1.76     1.76   0.17988  -23.7898
 3.20000    1.76     1.76   0.18044  -23.7900
 3.25000    1.76     1.76   0.17960  -23.7902
 3.30000    1.76     1.76   0.17967  -23.7898
 3.35000    1.76     1.76   0.18012  -23.7872
 3.40000    1.76     1.76   0.17979  -23.7899
 3.45000    1.76     1.76   0.17987  -23.7887
 3.50000    1.76     1.76   0.18026  -23.7899
 3.55000    1.76     1.76   0.17949  -23.7898
 3.60000    1.76     1.76   0.17977  -23.7892
 3.65000    1.76     1.76   0.17993  -23.7888
 3.70000    1.76     1.76   0.17926  -23.7898
 3.75000    1.76     1.76   0.17965  -23.7889
 3.80000    1.76     1.76   0.17999  -23.7891
 3.85000    1.76     1.76   0.17926  -23.7898
 3.90000    1.76     1.76   0.18000  -23.7900
 3.95000    1.76     1.76   0.18001  -23.7890
 4.00000    1.76     1.76   0.17894  -23.7887
 4.00000    1.76     1.76   0.17931  -23.7888
 3.95000    1.76     1.76   0.17998  -23.7892
 3.90000    1.76     1.76   0.17908  -23.7889
 3.85000    1.76     1.76   0.17942  -23.7898
 3.80000    1.76     1.76   0.17980  -23.7896
 3.75000    1.76     1.76   0.17904  -23.7902
 3.70000    1.76     1.76   0.17908  -23.7898
 3.65000    1.76     1.76   0.17901  -23.7867
 3.60000    1.76     1.76   0.17875  -23.7888
 3.55000    1.76     1.76   0.17867  -23.7894
 3.50000    1.76     1.76   0.17946  -23.7901
 3.45000    1.76     1.76   0.17888  -23.7907
 3.40000    1.76     1.76   0.17885  -23.7902
 3.35000    1.76     1.76   0.17954  -23.7909
 3.30000    1.76     1.76   0.17864  -23.7903
 3.25000    1.76     1.76   0.17855  -23.7910
 3.20000    1.76     1.76   0.17927  -23.7912
 3.15000    1.76     1.76   0.17853  -23.7904
 3.10000    1.76     1.76   0.17825  -23.7900
 3.05000    1.76     1.76   0.17868  -23.7879
 3.00000    1.76     1.76   0.17778  -23.7893
 2.95000    1.76     1.76   0.17829  -23.7900
 2.90000    1.76     1.76   0.17909  -23.7899
 2.85000    1.76     1.76   0.17827  -23.7904
 2.80000    1.76     1.76   0.17834  -23.7908
 2.75000    1.76     1.76   0.17902  -23.7909
 2.70000    1.76     1.76   0.17843  -23.7920
 2.65000    1.76     1.76   0.17809  -23.7916
 2.60000    1.76     1.76   0.17813  -23.7901
 2.55000    1.76     1.76   0.17807  -23.7915
 2.50000    1.76     1.76   0.17785  -23.7916
 2.45000    1.76     1.76   0.17852  -23.7917
 2.40000    1.76     1.76   0.17791  -23.7929
 2.35000    1.76     1.76   0.17766  -23.7934
 2.30000    1.76     1.76   0.17814  -23.7926
 2.25000    1.76     1.76   0.17776  -23.7944
 2.20000    1.76     1.76   0.17774  -23.7945
 2.15000    1.76     1.76   0.17846  -23.7946
 2.10000    1.76     1.76   0.17759  -23.7955
 2.05000    1.76     1.76   0.17739  -23.7954
 2.00000    1.76     1.76   0.17812  -23.7955
 1.95000    1.76     1.76   0.17714  -23.7959
 1.90000    1.76     1.76   0.17719  -23.7969
 1.85000    1.76     1.76   0.17775  -23.7969
 1.80000    1.76     1.76   0.17700  -23.7974
 1.75000    1.76     1.76   0.17670  -23.7986
 1.70000    1.76     1.76   0.17714  -23.7984
 1.65000    1.76     1.76   0.17626  -23.8004
 1.60000    1.76     1.76   0.17559  -23.7997
 1.55000    1.76     1.76   0.17619  -23.8008
 1.50000    1.76     1.76   0.17564  -23.8027
 1.45000    1.76     1.76   0.17479  -23.8038
 1.40000    1.76     1.76   0.17567  -23.8054
 1.35000    1.76     1.76   0.17440  -23.8075
 1.30000    1.76     1.76   0.17348  -23.8083
 1.25000    1.76     1.76   0.17371  -23.8099
 1.20000    1.76     1.76   0.17219  -23.8112
 1.15000    1.76     1.76   0.17080  -23.8112
 1.10000    1.76     1.76   0.17103  -23.8142
 1.05000    1.76     1.76   0.16944  -23.8160
 1.00000    1.76     1.76   0.16798  -23.8178
 0.95000    1.76     1.76   0.16744  -23.8186
 0.90000    1.76     1.76   0.16548  -23.8209
 0.85000    1.76     1.76   0.16343  -23.8246
 0.80000    1.76     1.76   0.16239  -23.8269
 0.75000    1.76     1.76   0.15920  -23.8305
 0.70000    1.76     1.76   0.15504  -23.8345
 0.65000    1.76     1.76   0.15150  -23.8353
 0.60000    1.76     1.76   0.14570  -23.8315
 0.55000    1.76     1.76   0.14024  -23.8249
 0.50000    1.76     1.76   0.13678  -23.8154
 0.45000    1.76     1.76   0.13201  -23.8019
 0.40000    1.76     1.76   0.12823  -23.7866
 0.35000    1.76     1.76   0.12569  -23.7673
 0.30000    1.76     1.76   0.12213  -23.7455
 0.25000    1.76     1.76   0.11927  -23.7167
 0.20000    1.76     1.76   0.12394  -23.6875
 0.15000    1.76     1.76   0.12694  -23.6752
 0.10000    1.76     1.76   0.12916  -23.6681
 0.05000    1.76     1.76   0.13148  -23.6654
 -0.00000    1.76     1.76   0.13192  -23.6654
