 Field[T] Tsmpl[K] Tcntr[K] Signal   Mirror[MM]
 0.00000    1.79     1.79   0.00333  -24.6259
 0.05000    1.79     1.79   0.00335  -24.6259
 0.10000    1.79     1.79   0.00332  -24.6260
 0.15000    1.79     1.79   0.00329  -24.6260
 0.20000    1.79     1.79   0.00332  -24.6262
 0.25000    1.79     1.79   0.00331  -24.6262
 0.30000    1.79     1.79   0.00326  -24.6264
 0.35000    1.79     1.79   0.00329  -24.6263
 0.40000    1.79     1.79   0.00330  -24.6261
 0.45000    1.79     1.79   0.00325  -24.6260
 0.50000    1.79     1.79   0.00323  -24.6260
 0.55000    1.79     1.79   0.00325  -24.6258
 0.60000    1.79     1.79   0.00323  -24.6254
 0.65000    1.79     1.79   0.00318  -24.6248
 0.70000    1.79     1.79   0.00318  -24.6247
 0.75000    1.79     1.79   0.00319  -24.6234
 0.80000    1.79     1.79   0.00315  -24.6227
 0.85000    1.79     1.79   0.00312  -24.6213
 0.90000    1.79     1.79   0.00311  -24.6193
 0.95000    1.79     1.79   0.00306  -24.6169
 1.00000    1.79     1.79   0.00295  -24.6141
 1.05000    1.79     1.79   0.00283  -24.6150
 1.10000    1.79     1.79   0.00277  -24.6193
 1.15000    1.79     1.79   0.00270  -24.6240
 1.20000    1.79     1.79   0.00265  -24.6287
 1.25000    1.79     1.79   0.00268  -24.6329
 1.30000    1.79     1.79   0.00268  -24.6372
 1.35000    1.79     1.79   0.00266  -24.6410
 1.40000    1.79     1.79   0.00268  -24.6448
 1.45000    1.79     1.79   0.00274  -24.6464
 1.50000    1.79     1.79   0.00276  -24.6485
 1.55000    1.79     1.79   0.00276  -24.6495
 1.60000    1.79     1.79   0.00281  -24.6496
 1.65000    1.79     1.79   0.00285  -24.6497
 1.70000    1.79     1.79   0.00284  -24.6500
 1.75000    1.79     1.79   0.00284  -24.6503
 1.80000    1.79     1.79   0.00289  -24.6500
 1.85000    1.79     1.79   0.00290  -24.6504
 1.90000    1.79     1.79   0.00287  -24.6509
 1.95000    1.79     1.79   0.00289  -24.6507
 2.00000    1.79     1.79   0.00293  -24.6500
 2.05000    1.79     1.79   0.00292  -24.6505
 2.10000    1.79     1.79   0.00290  -24.6504
 2.15000    1.79     1.79   0.00293  -24.6501
 2.20000    1.79     1.79   0.00295  -24.6501
 2.25000    1.79     1.79   0.00292  -24.6505
 2.30000    1.79     1.79   0.00293  -24.6502
 2.35000    1.79     1.79   0.00297  -24.6497
 2.40000    1.79     1.79   0.00296  -24.6501
 2.45000    1.79     1.79   0.00293  -24.6503
 2.50000    1.79     1.79   0.00295  -24.6503
 2.55000    1.79     1.79   0.00299  -24.6496
 2.60000    1.79     1.79   0.00297  -24.6499
 2.65000    1.79     1.79   0.00295  -24.6502
 2.70000    1.79     1.79   0.00299  -24.6496
 2.75000    1.79     1.79   0.00300  -24.6494
 2.80000    1.79     1.79   0.00295  -24.6495
 2.85000    1.79     1.79   0.00298  -24.6495
 2.90000    1.79     1.79   0.00301  -24.6491
 2.95000    1.79     1.79   0.00298  -24.6490
 3.00000    1.79     1.79   0.00297  -24.6493
 3.05000    1.79     1.79   0.00300  -24.6490
 3.10000    1.79     1.79   0.00300  -24.6488
 3.15000    1.79     1.79   0.00298  -24.6485
 3.20000    1.79     1.79   0.00299  -24.6484
 3.25000    1.79     1.79   0.00302  -24.6478
 3.30000    1.79     1.79   0.00299  -24.6480
 3.35000    1.79     1.79   0.00298  -24.6481
 3.40000    1.79     1.79   0.00301  -24.6478
 3.45000    1.79     1.79   0.00301  -24.6475
 3.50000    1.79     1.79   0.00299  -24.6478
 3.55000    1.79     1.79   0.00298  -24.6479
 3.60000    1.79     1.79   0.00301  -24.6476
 3.65000    1.79     1.79   0.00302  -24.6472
 3.70000    1.79     1.79   0.00299  -24.6474
 3.75000    1.79     1.79   0.00300  -24.6471
 3.80000    1.79     1.79   0.00303  -24.6468
 3.85000    1.79     1.79   0.00300  -24.6471
 3.90000    1.79     1.79   0.00298  -24.6472
 3.95000    1.79     1.79   0.00302  -24.6467
 4.00000    1.79     1.79   0.00302  -24.6469
 4.00000    1.79     1.79   0.00300  -24.6468
 3.95000    1.79     1.79   0.00299  -24.6470
 3.90000    1.79     1.79   0.00302  -24.6469
 3.85000    1.79     1.79   0.00303  -24.6467
 3.80000    1.79     1.79   0.00298  -24.6473
 3.75000    1.79     1.79   0.00300  -24.6468
 3.70000    1.79     1.79   0.00303  -24.6469
 3.65000    1.79     1.79   0.00300  -24.6469
 3.60000    1.79     1.79   0.00299  -24.6468
 3.55000    1.79     1.79   0.00302  -24.6467
 3.50000    1.79     1.79   0.00303  -24.6469
 3.45000    1.79     1.79   0.00299  -24.6470
 3.40000    1.79     1.79   0.00299  -24.6473
 3.35000    1.79     1.79   0.00303  -24.6471
 3.30000    1.79     1.79   0.00302  -24.6469
 3.25000    1.79     1.79   0.00298  -24.6477
 3.20000    1.79     1.79   0.00300  -24.6475
 3.15000    1.79     1.79   0.00304  -24.6469
 3.10000    1.79     1.79   0.00299  -24.6476
 3.05000    1.79     1.79   0.00298  -24.6482
 3.00000    1.79     1.79   0.00302  -24.6479
 2.95000    1.79     1.79   0.00301  -24.6478
 2.90000    1.79     1.79   0.00298  -24.6481
 2.85000    1.79     1.79   0.00300  -24.6481
 2.80000    1.79     1.79   0.00302  -24.6477
 2.75000    1.79     1.79   0.00299  -24.6482
 2.70000    1.79     1.79   0.00298  -24.6484
 2.65000    1.79     1.79   0.00300  -24.6481
 2.60000    1.79     1.79   0.00300  -24.6484
 2.55000    1.79     1.79   0.00296  -24.6490
 2.50000    1.79     1.79   0.00297  -24.6487
 2.45000    1.79     1.79   0.00300  -24.6482
 2.40000    1.79     1.79   0.00296  -24.6487
 2.35000    1.79     1.79   0.00294  -24.6490
 2.30000    1.79     1.79   0.00298  -24.6484
 2.25000    1.79     1.79   0.00296  -24.6487
 2.20000    1.79     1.79   0.00293  -24.6487
 2.15000    1.79     1.79   0.00294  -24.6487
 2.10000    1.79     1.79   0.00296  -24.6484
 2.05000    1.79     1.79   0.00293  -24.6483
 2.00000    1.79     1.79   0.00290  -24.6488
 1.95000    1.79     1.79   0.00293  -24.6484
 1.90000    1.79     1.79   0.00294  -24.6483
 1.85000    1.79     1.79   0.00290  -24.6480
 1.80000    1.79     1.79   0.00287  -24.6484
 1.75000    1.79     1.79   0.00291  -24.6479
 1.70000    1.79     1.79   0.00288  -24.6482
 1.65000    1.79     1.79   0.00284  -24.6483
 1.60000    1.79     1.79   0.00282  -24.6482
 1.55000    1.79     1.79   0.00283  -24.6470
 1.50000    1.79     1.79   0.00278  -24.6466
 1.45000    1.79     1.79   0.00273  -24.6451
 1.40000    1.79     1.79   0.00273  -24.6428
 1.35000    1.79     1.79   0.00271  -24.6395
 1.30000    1.79     1.79   0.00267  -24.6362
 1.25000    1.79     1.79   0.00268  -24.6317
 1.20000    1.79     1.79   0.00271  -24.6278
 1.15000    1.79     1.79   0.00271  -24.6233
 1.10000    1.79     1.79   0.00274  -24.6181
 1.05000    1.79     1.79   0.00285  -24.6138
 1.00000    1.79     1.79   0.00297  -24.6123
 0.95000    1.79     1.79   0.00304  -24.6149
 0.90000    1.79     1.79   0.00309  -24.6176
 0.85000    1.79     1.79   0.00316  -24.6196
 0.80000    1.79     1.79   0.00318  -24.6207
 0.75000    1.79     1.79   0.00316  -24.6222
 0.70000    1.79     1.79   0.00320  -24.6230
 0.65000    1.79     1.79   0.00325  -24.6235
 0.60000    1.79     1.79   0.00322  -24.6239
 0.55000    1.79     1.79   0.00323  -24.6242
 0.50000    1.79     1.79   0.00327  -24.6245
 0.45000    1.79     1.79   0.00328  -24.6249
 0.40000    1.79     1.79   0.00325  -24.6250
 0.35000    1.79     1.79   0.00329  -24.6251
 0.30000    1.79     1.79   0.00332  -24.6251
 0.25000    1.79     1.79   0.00330  -24.6251
 0.20000    1.79     1.79   0.00330  -24.6248
 0.15000    1.79     1.79   0.00334  -24.6248
 0.10000    1.79     1.79   0.00335  -24.6248
 0.05000    1.79     1.79   0.00332  -24.6248
 -0.00000    1.79     1.79   0.00333  -24.6248
