 Field[T] Tsmpl[K] Tcntr[K] Signal   Mirror[MM]
 0.00000    4.97     3.00   1.26577  1.5273
 0.05000    4.97     3.00   1.26591  1.5272
 0.10000    4.97     3.01   1.26385  1.5277
 0.15000    4.97     2.99   1.26337  1.5281
 0.20000    4.97     3.00   1.26299  1.5285
 0.25000    4.97     3.00   1.26403  1.5279
 0.30000    4.97     3.01   1.26339  1.5279
 0.35000    4.97     3.00   1.26215  1.5285
 0.40000    4.95     3.01   1.26564  1.5266
 0.45000    4.95     2.99   1.26906  1.5252
 0.50000    4.93     2.99   1.27103  1.5254
 0.55000    4.93     3.01   1.27224  1.5261
 0.60000    4.93     3.00   1.27174  1.5281
 0.65000    4.92     2.98   1.27264  1.5269
 0.70000    4.91     3.01   1.27256  1.5267
 0.75000    4.91     2.99   1.27341  1.5263
 0.80000    4.91     2.99   1.27450  1.5269
 0.85000    4.89     2.99   1.27403  1.5268
 0.90000    4.89     2.99   1.27364  1.5273
 0.95000    4.89     2.99   1.27420  1.5283
 1.00000    4.89     2.98   1.27351  1.5292
 1.05000    4.88     2.99   1.27226  1.5289
 1.10000    4.88     2.99   1.27326  1.5289
 1.15000    4.88     3.01   1.27297  1.5289
 1.20000    4.88     2.99   1.27351  1.5293
 1.25000    4.88     2.99   1.27460  1.5285
 1.30000    4.88     2.98   1.27263  1.5296
 1.35000    4.88     2.99   1.27433  1.5290
 1.40000    4.88     2.99   1.27439  1.5295
 1.45000    4.89     2.98   1.27451  1.5297
 1.50000    4.89     2.98   1.27367  1.5294
 1.55000    4.89     2.98   1.27508  1.5300
 1.60000    4.91     2.99   1.27596  1.5295
 1.65000    4.92     2.99   1.27454  1.5300
 1.70000    4.93     2.98   1.27494  1.5305
 1.75000    4.94     2.99   1.27432  1.5302
 1.80000    4.96     3.01   1.27474  1.5306
 1.85000    4.97     2.99   1.27313  1.5309
 1.90000    4.98     2.99   1.27332  1.5304
 1.95000    4.99     2.99   1.27233  1.5307
 2.00000    4.99     2.99   1.27371  1.5302
 2.05000    5.00     2.99   1.27271  1.5309
 2.10000    5.01     3.01   1.27269  1.5306
 2.15000    5.02     3.00   1.27240  1.5308
 2.20000    5.03     2.99   1.27152  1.5307
 2.25000    5.04     3.00   1.27199  1.5314
 2.30000    5.05     2.99   1.27141  1.5317
 2.35000    5.07     3.02   1.27175  1.5313
 2.40000    5.10     3.00   1.27145  1.5310
 2.45000    5.12     3.00   1.27157  1.5312
 2.50000    5.15     3.00   1.27172  1.5315
 2.55000    5.17     2.99   1.27179  1.5313
 2.60000    5.20     3.01   1.27138  1.5317
 2.65000    5.22     3.00   1.27108  1.5318
 2.70000    5.22     3.00   1.27149  1.5317
 2.75000    5.23     3.01   1.27011  1.5315
 2.80000    5.25     2.99   1.27208  1.5313
 2.85000    5.26     3.00   1.27241  1.5316
 2.90000    5.26     3.02   1.27161  1.5315
 2.95000    5.26     2.99   1.27114  1.5318
 3.00000    5.26     2.99   1.27198  1.5312
 3.05000    5.26     3.00   1.27094  1.5309
 3.10000    5.25     3.00   1.27191  1.5312
 3.15000    5.24     3.01   1.26852  1.5323
 3.20000    5.23     3.00   1.26880  1.5327
 3.25000    5.22     3.01   1.26947  1.5322
 3.30000    5.22     3.00   1.26995  1.5319
 3.35000    5.20     3.00   1.27079  1.5317
 3.40000    5.19     2.99   1.27090  1.5321
 3.45000    5.18     3.00   1.27048  1.5321
 3.50000    5.18     3.01   1.27054  1.5317
 3.55000    5.17     3.00   1.26963  1.5326
 3.60000    5.17     3.00   1.26972  1.5318
 3.65000    5.17     3.01   1.26973  1.5318
 3.70000    5.17     3.00   1.26925  1.5321
 3.75000    5.16     3.00   1.26930  1.5320
 3.80000    5.16     3.01   1.26944  1.5323
 3.85000    5.17     3.01   1.26998  1.5323
 3.90000    5.17     3.01   1.26933  1.5325
 3.95000    5.18     3.00   1.26879  1.5323
 4.00000    5.18     3.00   1.26959  1.5327
 4.05000    5.20     3.02   1.26867  1.5324
 4.10000    5.21     3.00   1.26832  1.5328
 4.15000    5.22     2.99   1.26901  1.5325
 4.20000    5.23     3.00   1.26773  1.5331
 4.25000    5.24     3.00   1.26909  1.5324
 4.30000    5.25     3.02   1.26955  1.5321
 4.35000    5.26     3.01   1.26806  1.5321
 4.40000    5.26     3.00   1.26867  1.5327
 4.45000    5.27     3.01   1.26895  1.5323
 4.50000    5.28     3.00   1.26868  1.5326
 4.55000    5.28     3.00   1.26826  1.5332
 4.60000    5.29     3.01   1.26790  1.5333
 4.65000    5.28     3.01   1.26767  1.5329
 4.70000    5.28     3.00   1.26904  1.5324
 4.75000    5.28     3.01   1.26858  1.5323
 4.80000    5.28     3.00   1.26812  1.5330
 4.85000    5.27     3.00   1.26641  1.5336
 4.90000    5.26     3.01   1.26793  1.5330
 4.95000    5.26     3.00   1.26790  1.5332
 5.00000    5.27     3.02   1.26714  1.5334
 5.05000    5.27     2.99   1.26814  1.5334
 5.10000    5.28     3.00   1.26707  1.5331
 5.15000    5.28     2.99   1.26594  1.5336
 5.20000    5.29     3.00   1.26733  1.5340
 5.25000    5.30     3.01   1.26721  1.5327
 5.30000    5.31     3.01   1.26866  1.5334
 5.35000    5.32     3.00   1.26807  1.5331
 5.40000    5.33     3.01   1.26808  1.5329
 5.45000    5.34     3.00   1.26789  1.5332
 5.50000    5.35     3.01   1.26830  1.5332
 5.55000    5.36     3.00   1.26821  1.5331
 5.60000    5.36     3.00   1.26706  1.5333
 5.65000    5.36     3.00   1.26696  1.5329
 5.70000    5.36     3.00   1.26652  1.5331
 5.75000    5.36     3.01   1.26665  1.5337
 5.80000    5.36     3.00   1.26728  1.5329
 5.85000    5.36     3.00   1.26515  1.5334
 5.90000    5.36     3.02   1.26660  1.5336
 5.95000    5.37     3.00   1.26659  1.5331
 6.00000    5.37     3.01   1.26451  1.5341
 6.05000    5.37     3.00   1.26546  1.5333
 6.10000    5.37     3.00   1.26535  1.5339
 6.15000    5.38     3.01   1.26486  1.5342
 6.20000    5.38     3.00   1.26639  1.5338
 6.25000    5.39     3.02   1.26675  1.5333
 6.30000    5.39     2.99   1.26612  1.5339
 6.35000    5.39     3.00   1.26519  1.5332
 6.40000    5.39     3.00   1.26560  1.5334
 6.45000    5.39     3.01   1.26426  1.5341
 6.50000    5.39     2.99   1.26576  1.5339
 6.55000    5.39     3.00   1.26711  1.5335
 6.60000    5.39     2.99   1.26598  1.5338
 6.65000    5.39     2.99   1.26627  1.5341
 6.70000    5.39     3.00   1.26097  1.5372
 6.75000    5.39     2.99   1.26545  1.5349
 6.80000    5.39     3.00   1.26629  1.5334
 6.85000    5.39     2.99   1.26632  1.5334
 6.90000    5.39     3.01   1.26640  1.5336
 6.95000    5.40     2.99   1.26368  1.5345
 7.00000    5.40     2.99   1.26535  1.5346
 7.00000    5.40     3.00   1.26651  1.5334
 6.95000    5.40     3.01   1.26577  1.5329
 6.90000    5.40     2.99   1.26712  1.5325
 6.85000    5.39     3.01   1.26597  1.5331
 6.80000    5.39     3.01   1.26617  1.5329
 6.75000    5.39     3.01   1.26747  1.5329
 6.70000    5.39     3.01   1.26557  1.5348
 6.65000    5.40     3.02   1.26754  1.5329
 6.60000    5.40     3.02   1.26615  1.5321
 6.55000    5.40     3.00   1.26650  1.5334
 6.50000    5.40     3.02   1.26655  1.5324
 6.45000    5.40     3.01   1.26588  1.5330
 6.40000    5.40     3.01   1.26659  1.5333
 6.35000    5.40     3.02   1.26629  1.5336
 6.30000    5.41     3.01   1.26495  1.5335
 6.25000    5.41     3.02   1.26393  1.5337
 6.20000    5.41     3.04   1.26552  1.5336
 6.15000    5.43     3.02   1.26661  1.5333
 6.10000    5.44     3.02   1.26656  1.5333
 6.05000    5.44     3.02   1.26610  1.5332
 6.00000    5.45     3.03   1.26473  1.5336
 5.95000    5.47     3.02   1.26464  1.5345
 5.90000    5.47     3.01   1.26597  1.5329
 5.85000    5.47     3.01   1.26485  1.5336
 5.80000    5.48     3.01   1.26469  1.5347
 5.75000    5.48     3.03   1.26567  1.5342
 5.70000    5.49     3.01   1.26481  1.5335
 5.65000    5.50     3.01   1.26643  1.5337
 5.60000    5.50     3.01   1.26761  1.5326
 5.55000    5.50     3.01   1.26536  1.5337
 5.50000    5.51     3.02   1.26480  1.5346
 5.45000    5.51     3.00   1.26551  1.5344
 5.40000    5.51     3.01   1.26330  1.5342
 5.35000    5.51     3.01   1.26479  1.5343
 5.30000    5.52     3.02   1.26543  1.5338
 5.25000    5.52     3.00   1.26538  1.5342
 5.20000    5.52     3.01   1.26712  1.5337
 5.15000    5.53     3.00   1.26689  1.5338
 5.10000    5.53     3.01   1.26630  1.5337
 5.05000    5.53     3.01   1.26760  1.5334
 5.00000    5.54     3.00   1.26738  1.5336
 4.95000    5.54     3.00   1.26660  1.5344
 4.90000    5.54     3.02   1.26489  1.5344
 4.85000    5.55     3.01   1.26631  1.5339
 4.80000    5.55     3.00   1.26654  1.5334
 4.75000    5.55     2.99   1.26706  1.5337
 4.70000    5.56     3.00   1.26703  1.5342
 4.65000    5.56     3.02   1.26819  1.5344
 4.60000    5.57     3.00   1.26752  1.5347
 4.55000    5.57     3.00   1.26956  1.5339
 4.50000    5.58     3.01   1.26794  1.5339
 4.45000    5.58     3.00   1.26853  1.5337
 4.40000    5.59     3.02   1.26706  1.5352
 4.35000    5.59     3.00   1.26727  1.5341
 4.30000    5.59     3.00   1.26769  1.5344
 4.25000    5.60     3.00   1.26873  1.5336
 4.20000    5.60     3.00   1.26889  1.5333
 4.15000    5.60     3.01   1.26918  1.5339
 4.10000    5.60     3.00   1.26751  1.5343
 4.05000    5.60     3.00   1.27016  1.5335
 4.00000    5.60     3.00   1.26986  1.5335
 3.95000    5.60     3.00   1.26980  1.5332
 3.90000    5.60     3.02   1.27002  1.5336
 3.85000    5.60     3.00   1.27086  1.5330
 3.80000    5.60     3.00   1.26985  1.5337
 3.75000    5.60     3.00   1.26989  1.5333
 3.70000    5.60     3.00   1.26964  1.5337
 3.65000    5.60     3.01   1.27114  1.5333
 3.60000    5.60     3.01   1.27129  1.5335
 3.55000    5.60     2.99   1.27083  1.5361
 3.50000    5.60     3.00   1.27053  1.5347
 3.45000    5.60     3.01   1.27275  1.5331
 3.40000    5.60     3.00   1.27209  1.5344
 3.35000    5.60     2.99   1.27029  1.5349
 3.30000    5.60     3.01   1.27024  1.5339
 3.25000    5.60     3.00   1.27298  1.5336
 3.20000    5.60     3.00   1.27173  1.5339
 3.15000    5.60     3.00   1.27174  1.5335
 3.10000    5.59     3.00   1.27084  1.5330
 3.05000    5.59     3.01   1.27311  1.5327
 3.00000    5.59     3.00   1.26909  1.5345
 2.95000    5.58     3.00   1.27053  1.5333
 2.90000    5.57     3.00   1.27147  1.5335
 2.85000    5.57     3.01   1.27143  1.5331
 2.80000    5.57     3.00   1.27333  1.5334
 2.75000    5.56     3.00   1.27238  1.5333
 2.70000    5.56     3.00   1.27150  1.5337
 2.65000    5.55     3.01   1.27218  1.5331
 2.60000    5.55     2.99   1.27211  1.5333
 2.55000    5.55     3.00   1.27173  1.5338
 2.50000    5.54     3.00   1.27126  1.5330
 2.45000    5.53     3.00   1.27114  1.5332
 2.40000    5.53     3.01   1.27197  1.5331
 2.35000    5.52     2.99   1.27145  1.5328
 2.30000    5.52     3.00   1.27132  1.5330
 2.25000    5.51     3.00   1.27147  1.5340
 2.20000    5.51     3.01   1.27045  1.5336
 2.15000    5.51     2.99   1.26937  1.5339
 2.10000    5.51     3.00   1.27065  1.5341
 2.05000    5.51     2.99   1.27179  1.5337
 2.00000    5.50     3.01   1.27129  1.5334
 1.95000    5.50     3.00   1.27231  1.5334
 1.90000    5.50     3.00   1.27320  1.5328
 1.85000    5.50     3.02   1.27260  1.5332
 1.80000    5.51     3.00   1.27258  1.5330
 1.75000    5.50     3.00   1.27100  1.5342
 1.70000    5.50     3.00   1.26936  1.5345
 1.65000    5.50     3.01   1.27086  1.5340
 1.60000    5.49     3.00   1.27199  1.5338
 1.55000    5.49     3.02   1.27323  1.5325
 1.50000    5.49     3.00   1.27298  1.5329
 1.45000    5.48     2.99   1.27334  1.5327
 1.40000    5.47     3.00   1.27267  1.5331
 1.35000    5.46     2.99   1.27115  1.5342
 1.30000    5.45     3.01   1.27263  1.5333
 1.25000    5.44     2.99   1.27185  1.5334
 1.20000    5.43     2.99   1.27002  1.5335
 1.15000    5.42     2.99   1.27055  1.5327
 1.10000    5.41     3.00   1.27237  1.5325
 1.05000    5.40     2.99   1.27027  1.5328
 1.00000    5.39     2.99   1.27139  1.5330
 0.95000    5.39     3.00   1.27150  1.5318
 0.90000    5.38     3.00   1.27057  1.5324
 0.85000    5.38     3.00   1.26960  1.5332
 0.80000    5.36     3.00   1.26867  1.5327
 0.75000    5.36     3.02   1.27028  1.5318
 0.70000    5.34     2.99   1.26862  1.5314
 0.65000    5.33     2.99   1.26747  1.5324
 0.60000    5.32     2.99   1.26953  1.5304
 0.55000    5.31     3.00   1.26634  1.5314
 0.50000    5.29     2.99   1.26562  1.5309
 0.45000    5.28     2.99   1.26339  1.5310
 0.40000    5.26     3.01   1.26126  1.5304
 0.35000    5.25     2.99   1.25926  1.5317
 0.30000    5.22     2.98   1.25871  1.5331
 0.25000    5.20     2.99   1.25834  1.5325
 0.20000    5.17     2.99   1.25765  1.5326
 0.15000    5.16     2.99   1.25759  1.5326
 0.10000    5.14     3.00   1.25420  1.5332
 0.05000    5.13     2.98   1.25727  1.5335
-0.00000    5.12     2.99   1.25929  1.5337
