 Field[T] Tsmpl[K] Tcntr[K] Signal   Mirror[MM]
 0.00000    4.95     3.01   1.82357  3.9696
 0.05000    4.94     2.98   1.82217  3.9696
 0.10000    4.93     2.99   1.82039  3.9695
 0.15000    4.92     2.99   1.81819  3.9695
 0.20000    4.91     3.00   1.81645  3.9694
 0.25000    4.90     2.98   1.81449  3.9696
 0.30000    4.89     2.98   1.81434  3.9693
 0.35000    4.89     2.99   1.81261  3.9688
 0.40000    4.88     2.99   1.81279  3.9684
 0.45000    4.88     2.98   1.81119  3.9679
 0.50000    4.88     3.00   1.81159  3.9673
 0.55000    4.88     2.99   1.81436  3.9666
 0.60000    4.88     3.00   1.81816  3.9666
 0.65000    4.89     2.99   1.82116  3.9669
 0.70000    4.89     2.98   1.82391  3.9673
 0.75000    4.90     2.99   1.82325  3.9678
 0.80000    4.91     2.98   1.82373  3.9679
 0.85000    4.92     2.99   1.82453  3.9684
 0.90000    4.93     2.99   1.82432  3.9687
 0.95000    4.93     2.98   1.82568  3.9687
 1.00000    4.94     2.98   1.82375  3.9690
 1.05000    4.95     2.99   1.82323  3.9694
 1.10000    4.95     2.98   1.82302  3.9697
 1.15000    4.96     2.97   1.82298  3.9697
 1.20000    4.96     2.98   1.82399  3.9698
 1.25000    4.96     2.98   1.82302  3.9700
 1.30000    4.96     2.99   1.82185  3.9701
 1.35000    4.97     2.99   1.82180  3.9699
 1.40000    4.97     2.98   1.82078  3.9705
 1.45000    4.97     2.98   1.82024  3.9706
 1.50000    4.98     2.97   1.82100  3.9705
 1.55000    4.99     2.99   1.82157  3.9706
 1.60000    5.00     2.97   1.82098  3.9708
 1.65000    5.01     2.98   1.81992  3.9707
 1.70000    5.01     2.99   1.81989  3.9710
 1.75000    5.01     3.00   1.82039  3.9709
 1.80000    5.01     3.00   1.81967  3.9711
 1.85000    5.00     2.98   1.81892  3.9710
 1.90000    4.99     2.99   1.81848  3.9712
 1.95000    4.98     2.99   1.81837  3.9712
 2.00000    4.97     3.00   1.81584  3.9714
 2.05000    4.96     2.99   1.81682  3.9712
 2.10000    4.95     2.99   1.81578  3.9713
 2.15000    4.93     3.01   1.81613  3.9714
 2.20000    4.93     2.99   1.81606  3.9714
 2.25000    4.92     2.99   1.81487  3.9715
 2.30000    4.91     3.01   1.81478  3.9717
 2.35000    4.91     2.99   1.81531  3.9715
 2.40000    4.91     2.99   1.81439  3.9715
 2.45000    4.91     3.01   1.81388  3.9719
 2.50000    4.91     2.99   1.81408  3.9717
 2.55000    4.91     3.00   1.81431  3.9718
 2.60000    4.91     3.00   1.81313  3.9718
 2.65000    4.92     3.00   1.81250  3.9719
 2.70000    4.92     3.00   1.81164  3.9718
 2.75000    4.93     3.01   1.81181  3.9717
 2.80000    4.95     3.00   1.81241  3.9719
 2.85000    4.95     3.00   1.81202  3.9720
 2.90000    4.96     3.01   1.81145  3.9718
 2.95000    4.98     3.00   1.81129  3.9719
 3.00000    4.99     3.01   1.81137  3.9720
 3.00000    5.00     3.02   1.80977  3.9720
 2.95000    5.01     3.01   1.80968  3.9720
 2.90000    5.02     3.01   1.81102  3.9720
 2.85000    5.04     3.01   1.81078  3.9720
 2.80000    5.05     3.01   1.80972  3.9720
 2.75000    5.07     3.02   1.81191  3.9721
 2.70000    5.09     3.01   1.81051  3.9718
 2.65000    5.11     3.02   1.80792  3.9718
 2.60000    5.14     3.03   1.80936  3.9720
 2.55000    5.15     3.02   1.80978  3.9717
 2.50000    5.16     3.03   1.81014  3.9718
 2.45000    5.18     3.02   1.81137  3.9716
 2.40000    5.18     3.03   1.81215  3.9714
 2.35000    5.18     3.04   1.81153  3.9714
 2.30000    5.18     3.03   1.81179  3.9712
 2.25000    5.17     3.02   1.81204  3.9713
 2.20000    5.16     3.03   1.81340  3.9712
 2.15000    5.16     3.02   1.81229  3.9712
 2.10000    5.15     3.03   1.81323  3.9712
 2.05000    5.15     3.02   1.81257  3.9713
 2.00000    5.14     3.02   1.81345  3.9712
 1.95000    5.13     3.02   1.81366  3.9709
 1.90000    5.13     3.02   1.81240  3.9713
 1.85000    5.13     3.04   1.81269  3.9713
 1.80000    5.14     3.01   1.81211  3.9711
 1.75000    5.14     3.02   1.81247  3.9710
 1.70000    5.14     3.02   1.81270  3.9710
 1.65000    5.14     3.03   1.81097  3.9711
 1.60000    5.14     3.02   1.81190  3.9709
 1.55000    5.14     3.02   1.81267  3.9707
 1.50000    5.15     3.04   1.81320  3.9707
 1.45000    5.16     3.01   1.81329  3.9705
 1.40000    5.16     3.01   1.81246  3.9707
 1.35000    5.16     3.02   1.81374  3.9705
 1.30000    5.16     3.02   1.81229  3.9703
 1.25000    5.18     3.03   1.81155  3.9704
 1.20000    5.19     3.01   1.81249  3.9702
 1.15000    5.20     3.00   1.81142  3.9699
 1.10000    5.21     3.01   1.81154  3.9697
 1.05000    5.22     3.01   1.81089  3.9698
 1.00000    5.24     3.02   1.81140  3.9697
 0.95000    5.24     3.00   1.80983  3.9697
 0.90000    5.24     3.00   1.81085  3.9696
 0.85000    5.24     3.00   1.81065  3.9692
 0.80000    5.25     3.02   1.80865  3.9691
 0.75000    5.25     3.01   1.80849  3.9688
 0.70000    5.24     3.00   1.80737  3.9684
 0.65000    5.23     3.00   1.80500  3.9680
 0.60000    5.22     3.02   1.80107  3.9676
 0.55000    5.21     2.99   1.79740  3.9679
 0.50000    5.20     3.00   1.79374  3.9683
 0.45000    5.18     2.99   1.79052  3.9690
 0.40000    5.17     3.00   1.79098  3.9696
 0.35000    5.16     3.01   1.79080  3.9701
 0.30000    5.14     3.00   1.78990  3.9704
 0.25000    5.12     2.99   1.79052  3.9706
 0.20000    5.10     2.99   1.78994  3.9708
 0.15000    5.08     3.00   1.78951  3.9711
 0.10000    5.07     3.00   1.79170  3.9711
 0.05000    5.05     2.99   1.79170  3.9711
-0.00000    5.05     2.99   1.79165  3.9711
