 Field[T] Tsmpl[K] Tcntr[K] Signal   Mirror[MM]
 0.00000    5.06     2.96   1.40712  1.5621
 0.05000    5.04     2.95   1.40736  1.5619
 0.10000    5.02     2.95   1.40686  1.5621
 0.15000    5.01     2.95   1.40622  1.5619
 0.20000    5.00     2.95   1.40591  1.5619
 0.25000    4.98     2.94   1.40530  1.5617
 0.30000    4.96     2.94   1.40473  1.5617
 0.35000    4.95     2.95   1.40390  1.5617
 0.40000    4.93     2.95   1.40302  1.5616
 0.45000    4.92     2.95   1.40249  1.5618
 0.50000    4.92     2.95   1.40158  1.5620
 0.55000    4.90     2.94   1.40105  1.5618
 0.60000    4.89     2.97   1.40034  1.5617
 0.65000    4.89     2.95   1.39970  1.5614
 0.70000    4.89     2.95   1.39811  1.5613
 0.75000    4.89     2.95   1.39734  1.5611
 0.80000    4.88     2.95   1.39631  1.5606
 0.85000    4.87     2.93   1.39564  1.5601
 0.90000    4.86     2.95   1.39519  1.5599
 0.95000    4.85     2.96   1.39782  1.5590
 1.00000    4.85     2.94   1.40051  1.5590
 1.05000    4.84     2.93   1.40427  1.5586
 1.10000    4.84     2.94   1.40712  1.5589
 1.15000    4.82     2.96   1.40931  1.5590
 1.20000    4.83     2.95   1.41010  1.5592
 1.25000    4.82     2.96   1.41095  1.5593
 1.30000    4.82     2.94   1.41104  1.5597
 1.35000    4.81     2.94   1.41167  1.5599
 1.40000    4.81     2.95   1.41183  1.5600
 1.45000    4.81     2.95   1.41186  1.5600
 1.50000    4.81     2.95   1.41242  1.5601
 1.55000    4.82     2.96   1.41298  1.5601
 1.60000    4.82     2.96   1.41247  1.5602
 1.65000    4.82     2.95   1.41252  1.5603
 1.70000    4.81     2.97   1.41295  1.5601
 1.75000    4.81     2.96   1.41209  1.5605
 1.80000    4.81     2.98   1.41266  1.5604
 1.85000    4.82     2.97   1.41213  1.5606
 1.90000    4.82     2.98   1.41225  1.5605
 1.95000    4.82     2.99   1.41252  1.5606
 2.00000    4.82     2.98   1.41223  1.5607
 2.05000    4.83     2.99   1.41214  1.5608
 2.10000    4.84     2.99   1.41239  1.5607
 2.15000    4.84     2.99   1.41220  1.5608
 2.20000    4.86     3.00   1.41202  1.5608
 2.25000    4.87     2.99   1.41197  1.5609
 2.30000    4.88     3.01   1.41177  1.5608
 2.35000    4.89     3.00   1.41132  1.5611
 2.40000    4.89     3.00   1.41175  1.5611
 2.45000    4.90     3.00   1.41104  1.5608
 2.50000    4.91     2.99   1.41155  1.5609
 2.55000    4.91     3.01   1.41083  1.5610
 2.60000    4.92     3.00   1.41074  1.5614
 2.65000    4.92     3.01   1.41077  1.5613
 2.70000    4.92     3.00   1.41021  1.5614
 2.75000    4.92     3.00   1.41038  1.5613
 2.80000    4.93     2.99   1.40983  1.5613
 2.85000    4.93     3.01   1.40986  1.5613
 2.90000    4.94     3.02   1.40983  1.5613
 2.95000    4.94     3.00   1.41012  1.5611
 3.00000    4.94     3.01   1.40935  1.5614
 3.00000    4.94     3.00   1.40972  1.5614
 2.95000    4.94     3.01   1.40940  1.5615
 2.90000    4.95     3.02   1.40960  1.5615
 2.85000    4.95     3.02   1.41024  1.5615
 2.80000    4.96     3.04   1.41046  1.5615
 2.75000    4.97     3.02   1.41078  1.5614
 2.70000    4.98     3.04   1.41133  1.5613
 2.65000    4.99     3.04   1.41136  1.5612
 2.60000    5.00     3.05   1.41214  1.5613
 2.55000    5.01     3.04   1.41205  1.5612
 2.50000    5.02     3.06   1.41238  1.5613
 2.45000    5.02     3.05   1.41287  1.5613
 2.40000    5.03     3.05   1.41292  1.5613
 2.35000    5.04     3.06   1.41348  1.5614
 2.30000    5.04     3.05   1.41363  1.5614
 2.25000    5.05     3.05   1.41404  1.5614
 2.20000    5.05     3.06   1.41407  1.5615
 2.15000    5.06     3.04   1.41437  1.5615
 2.10000    5.06     3.05   1.41466  1.5612
 2.05000    5.06     3.05   1.41448  1.5614
 2.00000    5.07     3.04   1.41498  1.5611
 1.95000    5.07     3.05   1.41500  1.5610
 1.90000    5.08     3.05   1.41475  1.5611
 1.85000    5.09     3.04   1.41543  1.5610
 1.80000    5.09     3.05   1.41516  1.5610
 1.75000    5.10     3.03   1.41567  1.5609
 1.70000    5.10     3.05   1.41532  1.5609
 1.65000    5.12     3.05   1.41577  1.5607
 1.60000    5.12     3.04   1.41536  1.5607
 1.55000    5.13     3.05   1.41602  1.5607
 1.50000    5.14     3.03   1.41556  1.5606
 1.45000    5.14     3.03   1.41583  1.5606
 1.40000    5.15     3.04   1.41576  1.5606
 1.35000    5.16     3.02   1.41527  1.5605
 1.30000    5.17     3.02   1.41518  1.5604
 1.25000    5.18     3.02   1.41419  1.5601
 1.20000    5.19     3.03   1.41439  1.5600
 1.15000    5.20     3.01   1.41251  1.5599
 1.10000    5.21     3.01   1.41161  1.5598
 1.05000    5.22     3.02   1.40916  1.5598
 1.00000    5.22     3.01   1.40559  1.5599
 0.95000    5.23     3.01   1.40255  1.5602
 0.90000    5.23     3.02   1.40100  1.5606
 0.85000    5.25     3.01   1.40058  1.5612
 0.80000    5.25     3.00   1.40121  1.5615
 0.75000    5.25     3.01   1.40231  1.5618
 0.70000    5.25     3.02   1.40350  1.5620
 0.65000    5.26     3.00   1.40411  1.5623
 0.60000    5.26     3.00   1.40504  1.5624
 0.55000    5.26     3.00   1.40593  1.5626
 0.50000    5.26     3.02   1.40663  1.5626
 0.45000    5.27     2.99   1.40762  1.5626
 0.40000    5.27     3.00   1.40816  1.5628
 0.35000    5.26     3.00   1.40808  1.5630
 0.30000    5.25     2.99   1.40945  1.5628
 0.25000    5.23     3.01   1.40994  1.5630
 0.20000    5.21     2.99   1.41031  1.5633
 0.15000    5.19     2.99   1.41156  1.5629
 0.10000    5.17     2.99   1.41044  1.5630
 0.05000    5.16     3.00   1.41138  1.5629
