 Field[T] Tsmpl[K] Tcntr[K] Signal   Mirror[MM]
-0.00000    4.85     2.96   1.27540  1.4872
 0.00000    4.84     2.97   1.27600  1.4872
 0.05000    4.84     2.97   1.27547  1.4872
 0.10000    4.84     2.96   1.27505  1.4875
 0.15000    4.83     2.98   1.27468  1.4873
 0.20000    4.83     2.96   1.27442  1.4873
 0.25000    4.82     2.97   1.27419  1.4874
 0.30000    4.82     2.99   1.27340  1.4875
 0.35000    4.82     2.97   1.27305  1.4873
 0.40000    4.82     2.97   1.27209  1.4871
 0.45000    4.81     2.96   1.27195  1.4873
 0.50000    4.80     2.97   1.27048  1.4872
 0.55000    4.80     2.97   1.27018  1.4872
 0.60000    4.79     2.97   1.26916  1.4872
 0.65000    4.79     2.98   1.26886  1.4872
 0.70000    4.79     2.97   1.26717  1.4871
 0.75000    4.79     2.97   1.26589  1.4872
 0.80000    4.79     2.97   1.26522  1.4872
 0.85000    4.79     2.96   1.26337  1.4870
 0.90000    4.79     2.98   1.26177  1.4869
 0.95000    4.79     2.97   1.25948  1.4868
 1.00000    4.79     2.95   1.25746  1.4864
 1.05000    4.78     2.98   1.25600  1.4861
 1.10000    4.78     2.96   1.25572  1.4853
 1.15000    4.78     2.97   1.25703  1.4847
 1.20000    4.78     2.96   1.25995  1.4843
 1.25000    4.77     2.97   1.26336  1.4841
 1.30000    4.77     2.96   1.26530  1.4840
 1.35000    4.77     2.96   1.26687  1.4841
 1.40000    4.77     2.97   1.26867  1.4840
 1.45000    4.77     2.93   1.26912  1.4840
 1.50000    4.76     2.95   1.26991  1.4843
 1.55000    4.76     2.94   1.27068  1.4842
 1.60000    4.75     2.95   1.27073  1.4843
 1.65000    4.74     2.95   1.27122  1.4844
 1.70000    4.74     2.95   1.27213  1.4844
 1.75000    4.74     2.96   1.27167  1.4844
 1.80000    4.74     2.95   1.27212  1.4844
 1.85000    4.74     2.96   1.27158  1.4845
 1.90000    4.74     2.98   1.27210  1.4846
 1.95000    4.75     2.97   1.27237  1.4846
 2.00000    4.75     2.99   1.27262  1.4845
 2.05000    4.76     2.98   1.27247  1.4846
 2.10000    4.76     2.98   1.27298  1.4846
 2.15000    4.78     2.99   1.27258  1.4846
 2.20000    4.78     2.99   1.27264  1.4847
 2.25000    4.78     3.00   1.27238  1.4848
 2.30000    4.80     2.99   1.27216  1.4849
 2.35000    4.80     2.99   1.27174  1.4848
 2.40000    4.80     2.99   1.27186  1.4850
 2.45000    4.81     3.00   1.27168  1.4850
 2.50000    4.82     2.99   1.27182  1.4849
 2.55000    4.83     3.01   1.27169  1.4850
 2.60000    4.83     2.99   1.27048  1.4851
 2.65000    4.83     2.99   1.27163  1.4851
 2.70000    4.84     3.00   1.27115  1.4850
 2.75000    4.86     3.00   1.27084  1.4851
 2.80000    4.88     3.02   1.27075  1.4851
 2.85000    4.90     3.01   1.27090  1.4852
 2.90000    4.92     3.02   1.27034  1.4852
 2.95000    4.95     3.01   1.27081  1.4851
 3.00000    4.96     3.02   1.26973  1.4852
 3.00000    4.96     3.03   1.27003  1.4851
 2.95000    4.97     3.02   1.27047  1.4852
 2.90000    4.97     3.03   1.27039  1.4852
 2.85000    4.97     3.03   1.27051  1.4852
 2.80000    4.96     3.04   1.27071  1.4851
 2.75000    4.95     3.05   1.27061  1.4853
 2.70000    4.95     3.04   1.27055  1.4851
 2.65000    4.95     3.05   1.27115  1.4854
 2.60000    4.95     3.07   1.27119  1.4851
 2.55000    4.95     3.05   1.27176  1.4852
 2.50000    4.96     3.06   1.27182  1.4849
 2.45000    4.96     3.06   1.27185  1.4849
 2.40000    4.98     3.06   1.27178  1.4849
 2.35000    4.99     3.06   1.27191  1.4848
 2.30000    5.00     3.09   1.27182  1.4847
 2.25000    5.02     3.06   1.27171  1.4846
 2.20000    5.03     3.07   1.27138  1.4846
 2.15000    5.04     3.06   1.27199  1.4845
 2.10000    5.05     3.06   1.27180  1.4845
 2.05000    5.05     3.07   1.27196  1.4846
 2.00000    5.06     3.05   1.27196  1.4845
 1.95000    5.07     3.07   1.27168  1.4844
 1.90000    5.08     3.06   1.27185  1.4844
 1.85000    5.09     3.05   1.27156  1.4845
 1.80000    5.09     3.05   1.27157  1.4844
 1.75000    5.10     3.04   1.27166  1.4845
 1.70000    5.10     3.04   1.27089  1.4845
 1.65000    5.10     3.04   1.27048  1.4844
 1.60000    5.12     3.04   1.27015  1.4842
 1.55000    5.13     3.03   1.26944  1.4842
 1.50000    5.14     3.02   1.26929  1.4842
 1.45000    5.15     3.02   1.26857  1.4840
 1.40000    5.16     3.03   1.26782  1.4840
 1.35000    5.16     3.02   1.26695  1.4839
 1.30000    5.16     3.00   1.26478  1.4840
 1.25000    5.16     3.01   1.26288  1.4839
 1.20000    5.16     3.00   1.25987  1.4839
 1.15000    5.16     2.99   1.25659  1.4844
 1.10000    5.16     3.00   1.25484  1.4850
 1.05000    5.16     2.99   1.25509  1.4858
 1.00000    5.15     3.00   1.25673  1.4864
 0.95000    5.15     3.00   1.25847  1.4868
 0.90000    5.15     3.01   1.26062  1.4870
 0.85000    5.15     2.99   1.26207  1.4869
 0.80000    5.14     2.99   1.26412  1.4871
 0.75000    5.14     2.99   1.26567  1.4870
 0.70000    5.13     2.99   1.26676  1.4871
 0.65000    5.13     2.99   1.26753  1.4873
 0.60000    5.12     2.99   1.26847  1.4872
 0.55000    5.12     2.99   1.26947  1.4874
 0.50000    5.11     2.98   1.27015  1.4873
 0.45000    5.11     2.98   1.27095  1.4873
 0.40000    5.10     2.99   1.27138  1.4875
 0.35000    5.10     2.98   1.27185  1.4873
 0.30000    5.09     2.99   1.27226  1.4872
 0.25000    5.08     2.99   1.27253  1.4873
 0.20000    5.08     3.02   1.27313  1.4872
 0.15000    5.06     2.98   1.27345  1.4870
 0.10000    5.05     2.98   1.27361  1.4871
 0.05000    5.03     2.98   1.27405  1.4873
-0.00000    5.01     2.98   1.27388  1.4872
