 Field[T] Tsmpl[K] Tcntr[K] Signal   Mirror[MM]
 0.00000    4.77     2.94   2.08049  1.5565
 0.05000    4.76     2.96   2.08133  1.5565
 0.10000    4.76     2.96   2.08258  1.5567
 0.15000    4.75     2.96   2.08373  1.5568
 0.20000    4.74     2.97   2.08504  1.5566
 0.25000    4.74     2.97   2.08561  1.5568
 0.30000    4.73     2.97   2.08746  1.5567
 0.35000    4.73     2.98   2.08698  1.5569
 0.40000    4.73     2.97   2.08808  1.5568
 0.45000    4.72     2.98   2.08859  1.5569
 0.50000    4.72     2.97   2.08838  1.5569
 0.55000    4.71     2.98   2.08827  1.5571
 0.60000    4.70     2.98   2.08788  1.5570
 0.65000    4.70     2.98   2.08699  1.5570
 0.70000    4.70     2.97   2.08655  1.5569
 0.75000    4.69     2.96   2.08592  1.5571
 0.80000    4.68     2.98   2.08562  1.5570
 0.85000    4.68     2.97   2.08503  1.5570
 0.90000    4.67     2.97   2.08458  1.5571
 0.95000    4.67     2.97   2.08327  1.5570
 1.00000    4.66     2.97   2.08199  1.5571
 1.05000    4.66     2.97   2.07988  1.5570
 1.10000    4.66     2.97   2.07838  1.5571
 1.15000    4.66     2.97   2.07681  1.5569
 1.20000    4.65     2.94   2.07447  1.5570
 1.25000    4.64     2.96   2.07187  1.5568
 1.30000    4.64     2.96   2.06833  1.5568
 1.35000    4.64     2.96   2.06431  1.5567
 1.40000    4.64     2.96   2.06152  1.5565
 1.45000    4.64     2.96   2.05857  1.5562
 1.50000    4.65     2.97   2.05526  1.5558
 1.55000    4.66     2.97   2.05330  1.5551
 1.60000    4.66     2.97   2.05504  1.5543
 1.65000    4.67     2.97   2.06322  1.5538
 1.70000    4.68     2.98   2.07349  1.5537
 1.75000    4.69     2.98   2.08101  1.5536
 1.80000    4.70     2.98   2.08673  1.5537
 1.85000    4.70     2.99   2.09055  1.5540
 1.90000    4.70     3.00   2.09309  1.5542
 1.95000    4.70     2.99   2.09462  1.5544
 2.00000    4.70     3.00   2.09571  1.5545
 2.05000    4.71     3.00   2.09738  1.5546
 2.10000    4.71     3.00   2.09849  1.5547
 2.15000    4.72     3.00   2.09773  1.5547
 2.20000    4.73     3.00   2.09953  1.5547
 2.25000    4.74     3.00   2.09953  1.5548
 2.30000    4.74     3.00   2.10050  1.5550
 2.35000    4.75     3.00   2.10081  1.5550
 2.40000    4.76     3.00   2.10143  1.5548
 2.45000    4.77     3.00   2.10056  1.5552
 2.50000    4.78     3.01   2.10209  1.5551
 2.55000    4.80     3.01   2.10193  1.5553
 2.60000    4.82     3.01   2.10156  1.5552
 2.65000    4.84     3.01   2.10178  1.5554
 2.70000    4.86     3.02   2.10183  1.5555
 2.75000    4.89     3.02   2.10214  1.5554
 2.80000    4.90     3.02   2.10115  1.5554
 2.85000    4.91     3.03   2.10171  1.5555
 2.90000    4.92     3.02   2.10152  1.5557
 2.95000    4.93     3.04   2.10156  1.5558
 3.00000    4.95     3.03   2.10052  1.5558
 3.00000    4.95     3.03   2.10119  1.5558
 2.95000    4.96     3.03   2.10093  1.5557
 2.90000    4.96     3.03   2.10121  1.5557
 2.85000    4.97     3.05   2.10180  1.5556
 2.80000    4.97     3.06   2.10175  1.5555
 2.75000    4.98     3.05   2.10171  1.5556
 2.70000    4.98     3.06   2.10238  1.5556
 2.65000    4.98     3.06   2.10272  1.5555
 2.60000    4.98     3.06   2.10270  1.5556
 2.55000    4.99     3.07   2.10245  1.5554
 2.50000    4.99     3.07   2.10250  1.5553
 2.45000    4.99     3.07   2.10244  1.5554
 2.40000    4.99     3.08   2.10254  1.5554
 2.35000    5.00     3.08   2.10251  1.5552
 2.30000    5.01     3.08   2.10152  1.5553
 2.25000    5.02     3.08   2.10198  1.5552
 2.20000    5.03     3.07   2.10111  1.5552
 2.15000    5.03     3.08   2.10077  1.5552
 2.10000    5.04     3.07   2.10008  1.5548
 2.05000    5.05     3.06   2.09829  1.5548
 2.00000    5.06     3.06   2.09732  1.5547
 1.95000    5.06     3.07   2.09660  1.5546
 1.90000    5.07     3.08   2.09518  1.5543
 1.85000    5.08     3.07   2.09185  1.5543
 1.80000    5.09     3.06   2.08854  1.5542
 1.75000    5.09     3.06   2.08390  1.5542
 1.70000    5.10     3.05   2.07663  1.5541
 1.65000    5.10     3.04   2.06676  1.5543
 1.60000    5.10     3.04   2.05829  1.5548
 1.55000    5.10     3.04   2.05547  1.5554
 1.50000    5.11     3.05   2.05800  1.5562
 1.45000    5.12     3.05   2.06096  1.5565
 1.40000    5.13     3.04   2.06483  1.5570
 1.35000    5.14     3.03   2.06826  1.5572
 1.30000    5.14     3.03   2.07198  1.5576
 1.25000    5.16     3.03   2.07520  1.5576
 1.20000    5.16     3.02   2.07860  1.5577
 1.15000    5.18     3.02   2.08168  1.5577
 1.10000    5.18     3.02   2.08418  1.5577
 1.05000    5.19     3.03   2.08600  1.5578
 1.00000    5.20     3.02   2.08811  1.5580
 0.95000    5.21     3.02   2.09064  1.5579
 0.90000    5.22     3.01   2.09262  1.5580
 0.85000    5.22     3.02   2.09367  1.5580
 0.80000    5.23     3.03   2.09495  1.5579
 0.75000    5.24     3.01   2.09613  1.5576
 0.70000    5.24     3.01   2.09803  1.5576
 0.65000    5.24     3.01   2.09799  1.5579
 0.60000    5.25     3.01   2.09966  1.5580
 0.55000    5.24     3.01   2.10135  1.5578
 0.50000    5.24     3.01   2.10080  1.5577
 0.45000    5.23     3.01   2.10106  1.5578
 0.40000    5.22     3.00   2.10163  1.5577
 0.35000    5.22     3.00   2.10275  1.5579
 0.30000    5.22     3.00   2.10349  1.5578
 0.25000    5.21     3.00   2.10328  1.5577
 0.20000    5.20     3.00   2.10396  1.5578
 0.15000    5.20     3.00   2.10486  1.5578
 0.10000    5.19     3.00   2.10558  1.5578
 0.05000    5.17     2.99   2.10567  1.5579
-0.00000    5.16     3.00   2.10574  1.5579
