 Field[T] Tsmpl[K] Tcntr[K] Signal   Mirror[MM]
 0.00000    5.12     2.97   1.06706  1.5903
 0.05000    5.11     2.97   1.06706  1.5903
 0.10000    5.10     2.96   1.06681  1.5904
 0.15000    5.09     2.96   1.06728  1.5902
 0.20000    5.08     2.97   1.06776  1.5903
 0.25000    5.08     2.97   1.06694  1.5904
 0.30000    5.07     2.96   1.06615  1.5904
 0.35000    5.07     2.96   1.06546  1.5903
 0.40000    5.06     2.96   1.06460  1.5903
 0.45000    5.06     2.96   1.06405  1.5905
 0.50000    5.06     2.94   1.06390  1.5902
 0.55000    5.05     2.95   1.06320  1.5903
 0.60000    5.05     2.95   1.06298  1.5903
 0.65000    5.05     2.96   1.06244  1.5903
 0.70000    5.04     2.95   1.06204  1.5904
 0.75000    5.03     2.94   1.06154  1.5902
 0.80000    5.02     2.94   1.06127  1.5902
 0.85000    5.01     2.94   1.06108  1.5902
 0.90000    5.00     2.93   1.06063  1.5905
 0.95000    4.98     2.94   1.06055  1.5904
 1.00000    4.97     2.93   1.06010  1.5904
 1.05000    4.96     2.94   1.06041  1.5905
 1.10000    4.95     2.94   1.05935  1.5905
 1.15000    4.95     2.94   1.05994  1.5904
 1.20000    4.94     2.92   1.05957  1.5904
 1.25000    4.93     2.94   1.05964  1.5903
 1.30000    4.93     2.94   1.06030  1.5904
 1.35000    4.92     2.94   1.05878  1.5905
 1.40000    4.92     2.95   1.05700  1.5904
 1.45000    4.92     2.95   1.05564  1.5905
 1.50000    4.92     2.95   1.05445  1.5903
 1.55000    4.92     2.94   1.05298  1.5906
 1.60000    4.92     2.95   1.05172  1.5909
 1.65000    4.91     2.95   1.05045  1.5907
 1.70000    4.91     2.96   1.04915  1.5906
 1.75000    4.91     2.96   1.04802  1.5908
 1.80000    4.91     2.95   1.04571  1.5906
 1.85000    4.91     2.96   1.04314  1.5904
 1.90000    4.91     2.97   1.04145  1.5901
 1.95000    4.91     2.98   1.04158  1.5893
 2.00000    4.92     2.97   1.04358  1.5891
 2.05000    4.92     2.98   1.04636  1.5888
 2.10000    4.92     2.97   1.04860  1.5888
 2.15000    4.92     2.98   1.05003  1.5889
 2.20000    4.91     2.99   1.05135  1.5893
 2.25000    4.91     2.98   1.05234  1.5894
 2.30000    4.89     2.99   1.05293  1.5893
 2.35000    4.89     3.00   1.05354  1.5894
 2.40000    4.89     2.99   1.05365  1.5894
 2.45000    4.88     3.00   1.05427  1.5894
 2.50000    4.89     3.00   1.05386  1.5893
 2.55000    4.89     2.99   1.05375  1.5893
 2.60000    4.89     3.00   1.05408  1.5895
 2.65000    4.90     3.00   1.05370  1.5896
 2.70000    4.91     3.01   1.05329  1.5895
 2.75000    4.93     2.99   1.05299  1.5895
 2.80000    4.93     3.00   1.05222  1.5894
 2.85000    4.95     3.00   1.05185  1.5896
 2.90000    4.97     3.00   1.05198  1.5895
 2.95000    4.98     3.00   1.05175  1.5893
 3.00000    5.01     3.00   1.05210  1.5895
 3.05000    5.03     3.00   1.05201  1.5894
 3.10000    5.04     3.01   1.05194  1.5895
 3.15000    5.06     3.01   1.05286  1.5898
 3.20000    5.07     3.02   1.05386  1.5895
 3.25000    5.09     3.01   1.05336  1.5897
 3.30000    5.10     3.02   1.05195  1.5897
 3.35000    5.11     3.02   1.05130  1.5896
 3.40000    5.13     3.03   1.05071  1.5896
 3.45000    5.14     3.03   1.05018  1.5898
 3.50000    5.15     3.03   1.05002  1.5898
 3.55000    5.16     3.03   1.04961  1.5898
 3.60000    5.18     3.04   1.04919  1.5898
 3.65000    5.19     3.03   1.04921  1.5898
 3.70000    5.20     3.03   1.04949  1.5899
 3.75000    5.22     3.03   1.04906  1.5900
 3.80000    5.23     3.03   1.04885  1.5897
 3.85000    5.24     3.03   1.04908  1.5898
 3.90000    5.25     3.03   1.04885  1.5898
 3.95000    5.25     3.03   1.04891  1.5900
 4.00000    5.26     3.03   1.04907  1.5900
 4.00000    5.26     3.03   1.04911  1.5901
 3.95000    5.26     3.02   1.04956  1.5900
 3.90000    5.26     3.03   1.05014  1.5900
 3.85000    5.26     3.04   1.05170  1.5899
 3.80000    5.28     3.05   1.05216  1.5900
 3.75000    5.30     3.06   1.05135  1.5899
 3.70000    5.32     3.05   1.05080  1.5900
 3.65000    5.34     3.05   1.05039  1.5902
 3.60000    5.36     3.07   1.05034  1.5900
 3.55000    5.38     3.07   1.05025  1.5901
 3.50000    5.39     3.06   1.05008  1.5900
 3.45000    5.41     3.06   1.05007  1.5898
 3.40000    5.41     3.07   1.05009  1.5897
 3.35000    5.42     3.06   1.05031  1.5899
 3.30000    5.42     3.06   1.05039  1.5898
 3.25000    5.42     3.07   1.05014  1.5898
 3.20000    5.43     3.05   1.05032  1.5900
 3.15000    5.43     3.06   1.05059  1.5900
 3.10000    5.43     3.06   1.05079  1.5897
 3.05000    5.44     3.05   1.05125  1.5898
 3.00000    5.45     3.06   1.05145  1.5899
 2.95000    5.45     3.05   1.05138  1.5899
 2.90000    5.46     3.05   1.05120  1.5897
 2.85000    5.47     3.05   1.05136  1.5899
 2.80000    5.47     3.04   1.05146  1.5898
 2.75000    5.48     3.05   1.05151  1.5896
 2.70000    5.49     3.05   1.05142  1.5897
 2.65000    5.49     3.05   1.05143  1.5897
 2.60000    5.50     3.04   1.05163  1.5897
 2.55000    5.51     3.04   1.05199  1.5893
 2.50000    5.51     3.03   1.05324  1.5893
 2.45000    5.52     3.04   1.05334  1.5896
 2.40000    5.53     3.02   1.05220  1.5896
 2.35000    5.53     3.02   1.05134  1.5895
 2.30000    5.53     3.03   1.05097  1.5894
 2.25000    5.54     3.02   1.05010  1.5894
 2.20000    5.54     3.03   1.04923  1.5894
 2.15000    5.55     3.02   1.04826  1.5893
 2.10000    5.55     3.02   1.04699  1.5894
 2.05000    5.56     3.02   1.04484  1.5894
 2.00000    5.57     3.02   1.04212  1.5896
 1.95000    5.57     3.03   1.04029  1.5898
 1.90000    5.59     3.03   1.03995  1.5903
 1.85000    5.59     3.03   1.04119  1.5906
 1.80000    5.59     3.02   1.04380  1.5909
 1.75000    5.60     3.02   1.04589  1.5912
 1.70000    5.60     3.02   1.04735  1.5909
 1.65000    5.60     3.02   1.04830  1.5910
 1.60000    5.59     3.01   1.04962  1.5909
 1.55000    5.59     3.01   1.05092  1.5909
 1.50000    5.58     3.01   1.05169  1.5910
 1.45000    5.57     3.01   1.05274  1.5910
 1.40000    5.55     3.00   1.05386  1.5909
 1.35000    5.53     3.01   1.05446  1.5910
 1.30000    5.52     3.01   1.05550  1.5910
 1.25000    5.56     3.21   1.05773  1.5910
 1.20000    5.62     3.15   1.05762  1.5911
 1.15000    5.66     3.14   1.05671  1.5911
 1.10000    5.68     3.13   1.05706  1.5911
 1.05000    5.71     3.11   1.05699  1.5910
 1.00000    5.72     3.10   1.05699  1.5908
 0.95000    5.73     3.09   1.05708  1.5910
 0.90000    5.73     3.08   1.05726  1.5908
 0.85000    5.73     3.06   1.05764  1.5908
 0.80000    5.72     3.06   1.05751  1.5908
 0.75000    5.69     2.93   1.05791  1.5908
 0.70000    5.62     2.94   1.05828  1.5908
 0.65000    5.58     2.94   1.05847  1.5906
 0.60000    5.54     2.95   1.05880  1.5909
 0.55000    5.51     2.96   1.05929  1.5912
 0.50000    5.48     2.94   1.05951  1.5912
 0.45000    5.45     2.96   1.05986  1.5909
 0.40000    5.43     2.96   1.06061  1.5910
 0.35000    5.41     2.96   1.06079  1.5912
 0.30000    5.40     2.96   1.06229  1.5910
 0.25000    5.38     2.95   1.06190  1.5909
 0.20000    5.36     2.95   1.06112  1.5908
 0.15000    5.35     2.95   1.06092  1.5910
 0.10000    5.35     2.95   1.06113  1.5909
 0.05000    5.34     2.95   1.06066  1.5905
-0.00000    5.33     2.94   1.06012  1.5906
