 Field[T] Tsmpl[K] Tcntr[K] Signal   Mirror[MM]
 0.00000    5.27     3.01   1.01609  1.5858
 0.05000    5.25     3.00   1.01597  1.5856
 0.10000    5.24     2.99   1.01598  1.5855
 0.15000    5.22     2.99   1.01567  1.5856
 0.20000    5.21     2.99   1.01557  1.5857
 0.25000    5.20     2.98   1.01539  1.5858
 0.30000    5.19     2.98   1.01556  1.5858
 0.35000    5.18     2.98   1.01548  1.5858
 0.40000    5.18     2.99   1.01542  1.5858
 0.45000    5.17     2.99   1.01568  1.5857
 0.50000    5.17     2.98   1.01580  1.5858
 0.55000    5.16     2.98   1.01516  1.5859
 0.60000    5.16     2.99   1.01429  1.5857
 0.65000    5.16     2.98   1.01347  1.5860
 0.70000    5.15     2.97   1.01331  1.5858
 0.75000    5.14     2.97   1.01279  1.5861
 0.80000    5.12     2.97   1.01191  1.5860
 0.85000    5.11     2.96   1.01127  1.5861
 0.90000    5.10     2.98   1.01073  1.5863
 0.95000    5.09     2.97   1.01033  1.5865
 1.00000    5.08     2.96   1.01020  1.5864
 1.05000    5.07     2.97   1.00971  1.5862
 1.10000    5.06     2.96   1.00881  1.5858
 1.15000    5.05     2.96   1.00853  1.5858
 1.20000    5.04     2.95   1.00800  1.5858
 1.25000    5.03     2.96   1.00699  1.5859
 1.30000    5.02     2.96   1.00608  1.5859
 1.35000    5.01     2.96   1.00469  1.5859
 1.40000    5.01     2.96   1.00336  1.5860
 1.45000    5.01     2.97   1.00226  1.5861
 1.50000    5.01     2.96   1.00081  1.5861
 1.55000    5.01     2.97   0.99927  1.5860
 1.60000    5.01     2.97   0.99753  1.5860
 1.65000    5.01     2.98   0.99548  1.5857
 1.70000    5.03     2.97   0.99328  1.5854
 1.75000    5.03     2.98   0.99254  1.5848
 1.80000    5.03     2.98   0.99382  1.5841
 1.85000    5.04     2.99   0.99672  1.5838
 1.90000    5.05     2.99   0.99951  1.5838
 1.95000    5.05     2.99   1.00199  1.5838
 2.00000    5.06     2.99   1.00407  1.5839
 2.05000    5.07     2.99   1.00473  1.5839
 2.10000    5.08     2.99   1.00527  1.5838
 2.15000    5.09     2.99   1.00599  1.5839
 2.20000    5.11     3.00   1.00617  1.5840
 2.25000    5.12     2.99   1.00629  1.5842
 2.30000    5.13     3.00   1.00674  1.5839
 2.35000    5.13     2.99   1.00735  1.5841
 2.40000    5.14     3.01   1.00812  1.5840
 2.45000    5.14     3.00   1.00748  1.5841
 2.50000    5.14     3.01   1.00732  1.5841
 2.55000    5.14     3.01   1.00720  1.5842
 2.60000    5.14     3.00   1.00677  1.5843
 2.65000    5.14     3.01   1.00699  1.5844
 2.70000    5.14     3.00   1.00710  1.5843
 2.75000    5.14     3.01   1.00673  1.5842
 2.80000    5.15     3.00   1.00687  1.5842
 2.85000    5.16     3.01   1.00662  1.5844
 2.90000    5.16     3.01   1.00673  1.5844
 2.95000    5.16     3.01   1.00683  1.5844
 3.00000    5.16     3.02   1.00695  1.5844
 3.05000    5.16     3.01   1.00658  1.5845
 3.10000    5.17     3.01   1.00682  1.5844
 3.15000    5.17     3.02   1.00687  1.5846
 3.20000    5.18     3.01   1.00667  1.5846
 3.25000    5.19     3.02   1.00658  1.5847
 3.30000    5.21     3.02   1.00645  1.5847
 3.35000    5.22     3.02   1.00663  1.5847
 3.40000    5.23     3.03   1.00651  1.5846
 3.45000    5.24     3.02   1.00660  1.5846
 3.50000    5.25     3.02   1.00660  1.5848
 3.55000    5.26     3.03   1.00677  1.5849
 3.60000    5.27     3.01   1.00686  1.5848
 3.65000    5.29     3.01   1.00773  1.5849
 3.70000    5.30     3.01   1.00745  1.5850
 3.75000    5.31     3.01   1.00692  1.5849
 3.80000    5.32     3.02   1.00650  1.5850
 3.85000    5.34     3.02   1.00682  1.5850
 3.90000    5.35     3.02   1.00661  1.5849
 3.95000    5.36     3.01   1.00720  1.5850
 4.00000    5.36     3.01   1.00659  1.5851
 4.00000    5.37     3.02   1.00645  1.5851
 3.95000    5.38     3.01   1.00608  1.5850
 3.90000    5.39     3.01   1.00599  1.5851
 3.85000    5.40     3.02   1.00584  1.5850
 3.80000    5.42     3.03   1.00588  1.5849
 3.75000    5.43     3.02   1.00595  1.5849
 3.70000    5.45     3.02   1.00607  1.5849
 3.65000    5.46     3.03   1.00611  1.5848
 3.60000    5.48     3.04   1.00620  1.5849
 3.55000    5.50     3.03   1.00661  1.5849
 3.50000    5.51     3.03   1.00713  1.5848
 3.45000    5.53     3.03   1.00786  1.5848
 3.40000    5.54     3.03   1.00754  1.5847
 3.35000    5.55     3.02   1.00728  1.5848
 3.30000    5.56     3.03   1.00698  1.5847
 3.25000    5.57     3.03   1.00695  1.5847
 3.20000    5.58     3.03   1.00664  1.5847
 3.15000    5.59     3.03   1.00702  1.5846
 3.10000    5.59     3.02   1.00691  1.5847
 3.05000    5.59     3.03   1.00691  1.5847
 3.00000    5.60     3.02   1.00787  1.5847
 2.95000    5.60     3.02   1.00736  1.5846
 2.90000    5.60     3.02   1.00734  1.5844
 2.85000    5.61     3.02   1.00717  1.5845
 2.80000    5.61     3.01   1.00656  1.5844
 2.75000    5.61     3.02   1.00663  1.5844
 2.70000    5.61     3.01   1.00648  1.5845
 2.65000    5.61     3.02   1.00622  1.5846
 2.60000    5.62     3.01   1.00588  1.5844
 2.55000    5.62     3.02   1.00582  1.5843
 2.50000    5.62     3.01   1.00568  1.5841
 2.45000    5.62     3.02   1.00563  1.5841
 2.40000    5.63     3.01   1.00533  1.5840
 2.35000    5.63     3.01   1.00555  1.5842
 2.30000    5.63     3.01   1.00545  1.5841
 2.25000    5.64     3.02   1.00508  1.5840
 2.20000    5.65     3.03   1.00477  1.5840
 2.15000    5.66     3.01   1.00440  1.5840
 2.10000    5.67     3.02   1.00406  1.5839
 2.05000    5.68     3.02   1.00404  1.5838
 2.00000    5.69     3.01   1.00245  1.5839
 1.95000    5.70     3.02   1.00074  1.5840
 1.90000    5.70     3.01   0.99865  1.5839
 1.85000    5.71     3.01   0.99594  1.5841
 1.80000    5.71     3.01   0.99313  1.5845
 1.75000    5.71     3.00   0.99158  1.5849
 1.70000    5.70     3.00   0.99243  1.5854
 1.65000    5.69     3.01   0.99426  1.5857
 1.60000    5.68     3.01   0.99678  1.5858
 1.55000    5.66     3.00   0.99818  1.5857
 1.50000    5.65     3.00   0.99967  1.5860
 1.45000    5.63     3.00   1.00126  1.5862
 1.40000    5.61     2.99   1.00263  1.5861
 1.35000    5.59     3.01   1.00363  1.5862
 1.30000    5.57     3.00   1.00463  1.5860
 1.25000    5.55     3.00   1.00568  1.5860
 1.20000    5.54     3.01   1.00647  1.5859
 1.15000    5.52     3.00   1.00701  1.5860
 1.10000    5.50     3.00   1.00760  1.5862
 1.05000    5.49     3.00   1.00851  1.5860
 1.00000    5.47     2.99   1.00877  1.5860
 0.95000    5.45     2.99   1.00941  1.5860
 0.90000    5.45     3.01   1.01020  1.5859
 0.85000    5.43     3.00   1.01129  1.5861
 0.80000    5.43     2.99   1.01112  1.5859
 0.75000    5.42     3.01   1.01119  1.5860
 0.70000    5.42     3.00   1.01146  1.5859
 0.65000    5.42     3.00   1.01157  1.5859
 0.60000    5.41     2.99   1.01139  1.5859
 0.55000    5.40     2.99   1.01178  1.5858
 0.50000    5.39     3.00   1.01190  1.5859
 0.45000    5.38     3.00   1.01216  1.5858
 0.40000    5.36     2.99   1.01222  1.5857
 0.35000    5.35     2.99   1.01222  1.5857
 0.30000    5.33     2.99   1.01259  1.5859
 0.25000    5.32     2.99   1.01288  1.5858
 0.20000    5.29     2.99   1.01219  1.5859
 0.15000    5.28     2.99   1.01273  1.5858
 0.10000    5.27     2.99   1.01319  1.5859
 0.05000    5.26     2.99   1.01353  1.5858
-0.00000    5.26     2.99   1.01407  1.5857
