 Field[T] Tsmpl[K] Tcntr[K] Signal   Mirror[MM]
 0.00000    5.29     2.95   1.96299  1.6891
 0.05000    5.28     2.93   1.96273  1.6890
 0.10000    5.26     2.94   1.96343  1.6891
 0.15000    5.24     2.94   1.96295  1.6891
 0.20000    5.21     2.92   1.96171  1.6891
 0.25000    5.19     2.93   1.96083  1.6891
 0.30000    5.17     2.92   1.96085  1.6891
 0.35000    5.15     2.93   1.96087  1.6892
 0.40000    5.14     2.92   1.96033  1.6892
 0.45000    5.12     2.93   1.95997  1.6891
 0.50000    5.11     2.93   1.95876  1.6891
 0.55000    5.11     2.92   1.96070  1.6890
 0.60000    5.10     2.92   1.96070  1.6890
 0.65000    5.09     2.92   1.95990  1.6889
 0.70000    5.08     2.92   1.95910  1.6889
 0.75000    5.08     2.92   1.95829  1.6890
 0.80000    5.07     2.91   1.95682  1.6890
 0.85000    5.05     2.90   1.95601  1.6888
 0.90000    5.04     2.92   1.95536  1.6889
 0.95000    5.03     2.90   1.95397  1.6889
 1.00000    5.01     2.88   1.95256  1.6889
 1.05000    4.99     2.89   1.95174  1.6888
 1.10000    4.97     2.90   1.95038  1.6889
 1.15000    4.96     2.88   1.94881  1.6889
 1.20000    4.94     2.89   1.94795  1.6888
 1.25000    4.93     2.91   1.94704  1.6885
 1.30000    4.91     2.88   1.94487  1.6886
 1.35000    4.91     2.91   1.94543  1.6885
 1.40000    4.90     2.89   1.94420  1.6883
 1.45000    4.90     2.90   1.94458  1.6884
 1.50000    4.90     2.91   1.94416  1.6883
 1.55000    4.89     2.89   1.94366  1.6883
 1.60000    4.89     2.92   1.94348  1.6881
 1.65000    4.89     2.91   1.94359  1.6880
 1.70000    4.89     2.94   1.94337  1.6879
 1.75000    4.89     2.93   1.94316  1.6877
 1.80000    4.89     2.93   1.94237  1.6878
 1.85000    4.88     2.95   1.94209  1.6877
 1.90000    4.87     2.92   1.94203  1.6876
 1.95000    4.84     2.93   1.94031  1.6875
 2.00000    4.83     2.94   1.94036  1.6874
 2.05000    4.82     2.95   1.94034  1.6873
 2.10000    4.81     2.95   1.94093  1.6873
 2.15000    4.80     2.95   1.94151  1.6872
 2.20000    4.80     2.96   1.94244  1.6870
 2.25000    4.80     2.97   1.94406  1.6868
 2.30000    4.79     2.98   1.94450  1.6868
 2.35000    4.79     2.97   1.94564  1.6868
 2.40000    4.79     2.97   1.94686  1.6868
 2.45000    4.79     2.99   1.94758  1.6868
 2.50000    4.79     2.99   1.94935  1.6868
 2.55000    4.79     2.98   1.94991  1.6869
 2.60000    4.80     3.01   1.95050  1.6871
 2.65000    4.80     2.99   1.95111  1.6872
 2.70000    4.81     3.00   1.95038  1.6874
 2.75000    4.82     2.99   1.95152  1.6874
 2.80000    4.84     2.99   1.95164  1.6876
 2.85000    4.85     3.00   1.95135  1.6879
 2.90000    4.86     2.99   1.95153  1.6877
 2.95000    4.87     3.01   1.95234  1.6878
 3.00000    4.89     3.00   1.95192  1.6877
 3.00000    4.89     2.99   1.95179  1.6877
 2.95000    4.90     3.01   1.95156  1.6877
 2.90000    4.91     3.00   1.95232  1.6876
 2.85000    4.93     3.00   1.95267  1.6874
 2.80000    4.95     3.00   1.95272  1.6876
 2.75000    4.97     3.02   1.95276  1.6875
 2.70000    5.00     3.03   1.95238  1.6877
 2.65000    5.01     3.04   1.95344  1.6874
 2.60000    5.03     3.05   1.95358  1.6874
 2.55000    5.05     3.04   1.95256  1.6872
 2.50000    5.07     3.06   1.95196  1.6872
 2.45000    5.09     3.07   1.95171  1.6874
 2.40000    5.12     3.06   1.95107  1.6872
 2.35000    5.13     3.06   1.94952  1.6870
 2.30000    5.15     3.08   1.94826  1.6871
 2.25000    5.18     3.09   1.94804  1.6871
 2.20000    5.20     3.07   1.94690  1.6874
 2.15000    5.22     3.10   1.94604  1.6877
 2.10000    5.23     3.07   1.94667  1.6876
 2.05000    5.26     3.10   1.94687  1.6878
 2.00000    5.28     3.10   1.94710  1.6881
 1.95000    5.29     3.10   1.94702  1.6882
 1.90000    5.32     3.10   1.94803  1.6882
 1.85000    5.33     3.09   1.94893  1.6883
 1.80000    5.35     3.10   1.94882  1.6887
 1.75000    5.37     3.10   1.95059  1.6886
 1.70000    5.39     3.09   1.95050  1.6886
 1.65000    5.39     3.09   1.94979  1.6887
 1.60000    5.41     3.10   1.95098  1.6887
 1.55000    5.42     3.06   1.95089  1.6889
 1.50000    5.43     3.06   1.95137  1.6889
 1.45000    5.44     3.08   1.95222  1.6887
 1.40000    5.45     3.08   1.95214  1.6886
 1.35000    5.47     3.06   1.95209  1.6888
 1.30000    5.48     3.06   1.95260  1.6890
 1.25000    5.49     3.06   1.95434  1.6892
 1.20000    5.50     3.04   1.95563  1.6893
 1.15000    5.50     3.04   1.95607  1.6894
 1.10000    5.50     3.04   1.95814  1.6894
 1.05000    5.50     3.04   1.95927  1.6893
 1.00000    5.50     3.03   1.96066  1.6892
 0.95000    5.49     3.03   1.96212  1.6892
 0.90000    5.48     3.02   1.96336  1.6893
 0.85000    5.47     3.01   1.96424  1.6893
 0.80000    5.45     3.03   1.96493  1.6894
 0.75000    5.44     3.01   1.96532  1.6895
 0.70000    5.42     3.01   1.96611  1.6895
 0.65000    5.41     3.01   1.96648  1.6895
 0.60000    5.39     3.01   1.96746  1.6895
 0.55000    5.37     3.00   1.96781  1.6897
 0.50000    5.36     3.01   1.96806  1.6896
 0.45000    5.34     2.99   1.96900  1.6897
 0.40000    5.32     3.00   1.96954  1.6897
 0.35000    5.30     3.00   1.97012  1.6896
 0.30000    5.28     2.99   1.97075  1.6896
 0.25000    5.25     3.00   1.97079  1.6897
 0.20000    5.23     3.00   1.97198  1.6895
 0.15000    5.21     2.98   1.97257  1.6895
 0.10000    5.19     3.00   1.97310  1.6895
 0.05000    5.18     3.00   1.97282  1.6895
-0.00000    5.16     2.99   1.97354  1.6896
