 Field[T] Tsmpl[K] Tcntr[K] Signal   Mirror[MM]
 0.00000    5.22     2.92   1.42485  1.6753
 0.05000    5.19     2.91   1.42467  1.6754
 0.10000    5.16     2.92   1.42404  1.6753
 0.15000    5.14     2.93   1.42374  1.6755
 0.20000    5.12     2.93   1.42336  1.6754
 0.25000    5.10     2.91   1.42296  1.6755
 0.30000    5.07     2.94   1.42274  1.6755
 0.35000    5.06     2.91   1.42233  1.6754
 0.40000    5.05     2.92   1.42176  1.6754
 0.45000    5.03     2.92   1.42124  1.6756
 0.50000    5.03     2.93   1.42126  1.6755
 0.55000    5.02     2.90   1.42086  1.6756
 0.60000    5.00     2.91   1.41995  1.6755
 0.65000    4.99     2.92   1.41883  1.6754
 0.70000    4.99     2.91   1.41902  1.6755
 0.75000    4.99     2.91   1.41814  1.6753
 0.80000    4.97     2.89   1.41743  1.6752
 0.85000    4.96     2.90   1.41735  1.6753
 0.90000    4.95     2.91   1.41639  1.6755
 0.95000    4.93     2.89   1.41592  1.6755
 1.00000    4.91     2.89   1.41449  1.6754
 1.05000    4.90     2.92   1.41401  1.6752
 1.10000    4.88     2.87   1.41312  1.6751
 1.15000    4.87     2.89   1.41203  1.6749
 1.20000    4.86     2.89   1.41154  1.6748
 1.25000    4.85     2.90   1.41165  1.6748
 1.30000    4.84     2.87   1.41167  1.6745
 1.35000    4.82     2.91   1.41151  1.6744
 1.40000    4.82     2.90   1.41124  1.6743
 1.45000    4.83     2.90   1.41132  1.6743
 1.50000    4.83     2.89   1.41070  1.6743
 1.55000    4.82     2.91   1.41094  1.6741
 1.60000    4.82     2.91   1.41088  1.6740
 1.65000    4.82     2.92   1.41044  1.6740
 1.70000    4.82     2.93   1.41004  1.6739
 1.75000    4.81     2.93   1.40960  1.6738
 1.80000    4.79     2.95   1.40980  1.6737
 1.85000    4.78     2.94   1.40989  1.6736
 1.90000    4.76     2.95   1.41036  1.6736
 1.95000    4.76     2.96   1.41085  1.6733
 2.00000    4.76     2.96   1.41066  1.6732
 2.05000    4.75     2.97   1.41204  1.6731
 2.10000    4.75     2.97   1.41391  1.6730
 2.15000    4.76     2.98   1.41493  1.6730
 2.20000    4.76     2.98   1.41554  1.6732
 2.25000    4.76     2.97   1.41638  1.6731
 2.30000    4.76     2.98   1.41702  1.6732
 2.35000    4.76     3.00   1.41673  1.6734
 2.40000    4.76     2.98   1.41773  1.6734
 2.45000    4.76     3.00   1.41781  1.6736
 2.50000    4.77     2.99   1.41825  1.6736
 2.55000    4.77     2.99   1.41791  1.6735
 2.60000    4.78     2.99   1.41835  1.6736
 2.65000    4.79     2.99   1.41802  1.6737
 2.70000    4.81     3.01   1.41819  1.6738
 2.75000    4.82     2.99   1.41831  1.6738
 2.80000    4.84     3.00   1.41795  1.6738
 2.85000    4.85     3.01   1.41786  1.6740
 2.90000    4.86     3.00   1.41741  1.6740
 2.95000    4.87     3.00   1.41779  1.6742
 3.00000    4.88     3.01   1.41745  1.6741
 3.05000    4.90     3.00   1.41657  1.6740
 3.10000    4.91     3.02   1.41707  1.6740
 3.15000    4.92     3.00   1.41666  1.6742
 3.20000    4.93     3.01   1.41594  1.6742
 3.25000    4.94     3.03   1.41638  1.6744
 3.30000    4.95     3.01   1.41642  1.6743
 3.35000    4.96     3.02   1.41628  1.6745
 3.40000    4.96     3.02   1.41607  1.6745
 3.45000    4.97     3.04   1.41572  1.6746
 3.50000    4.98     3.02   1.41511  1.6747
 3.55000    4.99     3.03   1.41512  1.6745
 3.60000    5.01     3.04   1.41456  1.6746
 3.65000    5.03     3.04   1.41455  1.6745
 3.70000    5.05     3.05   1.41374  1.6746
 3.75000    5.07     3.04   1.41376  1.6749
 3.80000    5.09     3.04   1.41346  1.6749
 3.85000    5.11     3.05   1.41361  1.6750
 3.90000    5.12     3.04   1.41327  1.6750
 3.95000    5.13     3.05   1.41316  1.6749
 4.00000    5.15     3.04   1.41299  1.6750
 4.00000    5.16     3.04   1.41252  1.6750
 3.95000    5.17     3.04   1.41332  1.6749
 3.90000    5.18     3.04   1.41292  1.6748
 3.85000    5.19     3.05   1.41329  1.6748
 3.80000    5.20     3.06   1.41336  1.6748
 3.75000    5.22     3.09   1.41381  1.6748
 3.70000    5.23     3.09   1.41334  1.6750
 3.65000    5.25     3.08   1.41405  1.6748
 3.60000    5.27     3.11   1.41385  1.6747
 3.55000    5.30     3.12   1.41383  1.6749
 3.50000    5.32     3.11   1.41427  1.6747
 3.45000    5.35     3.12   1.41415  1.6748
 3.40000    5.38     3.15   1.41435  1.6750
 3.35000    5.41     3.13   1.41445  1.6749
 3.30000    5.44     3.16   1.41443  1.6750
 3.25000    5.47     3.12   1.41428  1.6749
 3.20000    5.49     3.13   1.41497  1.6747
 3.15000    5.51     3.15   1.41488  1.6746
 3.10000    5.54     3.12   1.41463  1.6748
 3.05000    5.56     3.14   1.41459  1.6748
 3.00000    5.58     3.13   1.41461  1.6746
 2.95000    5.59     3.12   1.41478  1.6746
 2.90000    5.61     3.11   1.41552  1.6747
 2.85000    5.63     3.13   1.41538  1.6745
 2.80000    5.65     3.10   1.41500  1.6747
 2.75000    5.66     3.10   1.41476  1.6746
 2.70000    5.67     3.09   1.41525  1.6744
 2.65000    5.68     3.09   1.41541  1.6745
 2.60000    5.69     3.09   1.41553  1.6745
 2.55000    5.70     3.09   1.41555  1.6744
 2.50000    5.71     3.08   1.41582  1.6743
 2.45000    5.72     3.07   1.41503  1.6745
 2.40000    5.73     3.08   1.41547  1.6743
 2.35000    5.74     3.06   1.41424  1.6741
 2.30000    5.74     3.06   1.41453  1.6741
 2.25000    5.75     3.07   1.41436  1.6741
 2.20000    5.76     3.07   1.41316  1.6741
 2.15000    5.78     3.06   1.41245  1.6743
 2.10000    5.78     3.04   1.41056  1.6740
 2.05000    5.79     3.04   1.41026  1.6741
 2.00000    5.80     3.04   1.40900  1.6743
 1.95000    5.81     3.04   1.40846  1.6744
 1.90000    5.82     3.03   1.40801  1.6744
 1.85000    5.82     3.03   1.40773  1.6745
 1.80000    5.83     3.05   1.40746  1.6745
 1.75000    5.84     3.03   1.40787  1.6747
 1.70000    5.84     3.02   1.40762  1.6746
 1.65000    5.85     3.01   1.40841  1.6748
 1.60000    5.85     3.03   1.40892  1.6749
 1.55000    5.85     3.02   1.40913  1.6750
 1.50000    5.85     3.02   1.40910  1.6752
 1.45000    5.85     3.03   1.40932  1.6752
 1.40000    5.85     3.01   1.40934  1.6751
 1.35000    5.84     3.01   1.41002  1.6752
 1.30000    5.84     3.00   1.40985  1.6751
 1.25000    5.83     3.03   1.41030  1.6752
 1.20000    5.83     3.00   1.41005  1.6753
 1.15000    5.82     3.00   1.40999  1.6758
 1.10000    5.82     3.00   1.41127  1.6757
 1.05000    5.80     3.00   1.41193  1.6759
 1.00000    5.78     2.99   1.41272  1.6758
 0.95000    5.76     3.02   1.41348  1.6760
 0.90000    5.73     2.99   1.41436  1.6759
 0.85000    5.70     2.99   1.41515  1.6762
 0.80000    5.67     3.00   1.41517  1.6762
 0.75000    5.64     3.01   1.41563  1.6762
 0.70000    5.62     2.99   1.41711  1.6762
 0.65000    5.60     3.00   1.41747  1.6763
 0.60000    5.58     3.01   1.41855  1.6765
 0.55000    5.57     2.99   1.41887  1.6767
 0.50000    5.55     3.00   1.41958  1.6767
 0.45000    5.53     2.99   1.41962  1.6767
 0.40000    5.52     3.00   1.42074  1.6768
 0.35000    5.51     2.99   1.42092  1.6768
 0.30000    5.50     2.99   1.42139  1.6768
 0.25000    5.48     2.99   1.42169  1.6766
 0.20000    5.47     2.99   1.42206  1.6766
 0.15000    5.46     2.99   1.42238  1.6765
 0.10000    5.45     2.99   1.42285  1.6765
 0.05000    5.45     2.98   1.42279  1.6764
-0.00000    5.44     2.98   1.42259  1.6764
