 Field[T] Tsmpl[K] Tcntr[K] SignalIntensity   Mirror[MM]
 0.00000    5.00     5.00   0.62547  -9.2258
 0.05000    5.00     5.00   0.62303  -9.2254
 0.10000    5.00     5.00   0.62604  -9.2257
 0.15000    5.00     5.00   0.62495  -9.2258
 0.20000    5.00     5.00   0.62514  -9.2263
 0.25000    5.00     5.00   0.62406  -9.2257
 0.30000    5.00     5.00   0.62418  -9.2256
 0.35000    5.00     5.00   0.62445  -9.2257
 0.40000    5.00     5.00   0.62360  -9.2244
 0.45000    5.00     5.00   0.62278  -9.2251
 0.50000    5.00     5.00   0.62105  -9.2254
 0.55000    5.00     5.00   0.62086  -9.2249
 0.60000    5.00     5.00   0.61895  -9.2250
 0.65000    5.00     5.00   0.61832  -9.2255
 0.70000    5.00     5.00   0.61697  -9.2255
 0.75000    5.00     5.00   0.61526  -9.2251
 0.80000    5.00     5.00   0.61659  -9.2245
 0.85000    5.00     5.00   0.61336  -9.2245
 0.90000    5.00     5.00   0.61330  -9.2245
 0.95000    5.00     5.00   0.61279  -9.2242
 1.00000    5.00     5.00   0.61140  -9.2243
 1.05000    5.00     5.00   0.60483  -9.2223
 1.10000    5.00     5.00   0.60358  -9.2225
 1.15000    5.00     5.00   0.60256  -9.2222
 1.20000    5.00     5.00   0.59949  -9.2218
 1.25000    5.00     5.00   0.59244  -9.2227
 1.30000    5.00     5.00   0.58702  -9.2223
 1.35000    5.00     5.00   0.58195  -9.2235
 1.40000    5.00     5.00   0.57843  -9.2257
 1.45000    5.00     5.00   0.57745  -9.2269
 1.50000    5.00     5.00   0.57740  -9.2282
 1.55000    5.00     5.00   0.57980  -9.2285
 1.60000    5.00     5.00   0.57776  -9.2280
 1.65000    5.00     5.00   0.57880  -9.2287
 1.70000    5.00     5.00   0.57776  -9.2294
 1.75000    5.00     5.00   0.58035  -9.2293
 1.80000    5.00     5.00   0.58114  -9.2283
 1.85000    5.00     5.00   0.57960  -9.2270
 1.90000    5.00     5.00   0.57303  -9.2261
 1.95000    5.00     5.00   0.56813  -9.2275
 2.00000    5.00     5.00   0.56625  -9.2287
 2.05000    5.00     5.00   0.56589  -9.2291
 2.10000    5.00     5.00   0.56491  -9.2295
 2.15000    5.00     5.00   0.56114  -9.2295
 2.20000    5.00     5.00   0.55751  -9.2295
 2.25000    5.00     5.00   0.55607  -9.2304
 2.30000    5.00     5.00   0.55071  -9.2294
 2.35000    5.00     5.00   0.54233  -9.2333
 2.40000    5.00     5.00   0.54884  -9.2361
 2.45000    5.00     5.00   0.55643  -9.2355
 2.50000    5.00     5.00   0.55757  -9.2336
 2.55000    5.00     5.00   0.55371  -9.2353
 2.60000    5.00     5.00   0.55570  -9.2373
 2.65000    5.00     5.00   0.56133  -9.2365
 2.70000    5.00     5.00   0.56667  -9.2358
 2.75000    5.00     5.00   0.56961  -9.2340
 2.80000    5.00     5.00   0.56850  -9.2323
 2.85000    5.00     5.00   0.56984  -9.2313
 2.90000    5.00     5.00   0.57057  -9.2306
 2.95000    5.00     5.00   0.56813  -9.2301
 3.00000    5.00     5.00   0.56844  -9.2294
 3.05000    5.00     5.00   0.56637  -9.2274
 3.10000    5.00     5.00   0.56308  -9.2278
 3.15000    5.00     5.00   0.56527  -9.2265
 3.20000    5.00     5.00   0.56423  -9.2258
 3.25000    5.00     5.00   0.56108  -9.2241
 3.30000    5.00     5.00   0.55855  -9.2230
 3.35000    5.00     5.00   0.55624  -9.2217
 3.40000    5.00     5.00   0.55280  -9.2198
 3.45000    5.00     5.00   0.55005  -9.2188
 3.50000    5.00     5.00   0.54496  -9.2176
 3.55000    5.00     5.00   0.53782  -9.2165
 3.60000    5.00     5.00   0.53259  -9.2160
 3.65000    5.00     5.00   0.52517  -9.2143
 3.70000    5.00     5.00   0.51858  -9.2139
 3.75000    5.00     5.00   0.50911  -9.2131
 3.80000    5.00     5.00   0.50438  -9.2125
 3.85000    5.00     5.00   0.49603  -9.2124
 3.90000    5.00     5.00   0.48713  -9.2125
 3.95000    5.00     5.00   0.47947  -9.2125
 4.00000    5.00     5.00   0.47038  -9.2132
 4.05000    5.00     5.00   0.46137  -9.2140
 4.10000    5.00     5.00   0.45334  -9.2155
 4.15000    5.00     5.00   0.44498  -9.2165
 4.20000    5.00     5.00   0.43601  -9.2182
 4.25000    5.00     5.00   0.42665  -9.2206
 4.30000    5.00     5.00   0.41860  -9.2224
 4.35000    5.00     5.00   0.41157  -9.2241
 4.40000    5.00     5.00   0.40680  -9.2263
 4.45000    5.00     5.00   0.40006  -9.2289
 4.50000    5.00     5.00   0.39485  -9.2315
 4.55000    5.00     5.00   0.38922  -9.2344
 4.60000    5.00     5.00   0.38359  -9.2377
 4.65000    5.00     5.00   0.37785  -9.2411
 4.70000    5.00     5.00   0.37562  -9.2442
 4.75000    5.00     5.00   0.37245  -9.2474
 4.80000    5.00     5.00   0.37037  -9.2509
 4.85000    5.00     5.00   0.36822  -9.2541
 4.90000    5.00     5.00   0.36361  -9.2578
 4.95000    5.00     5.00   0.36326  -9.2613
 5.00000    5.00     5.00   0.36098  -9.2643
 5.05000    5.00     5.00   0.36161  -9.2680
 5.10000    5.00     5.00   0.36123  -9.2715
 5.15000    5.00     5.00   0.36063  -9.2745
 5.20000    5.00     5.00   0.36161  -9.2781
 5.25000    5.00     5.00   0.36282  -9.2813
 5.30000    5.00     5.00   0.36355  -9.2845
 5.35000    5.00     5.00   0.36459  -9.2878
 5.40000    5.00     5.00   0.37220  -9.2913
 5.45000    5.00     5.00   0.37137  -9.2935
 5.50000    5.00     5.00   0.37483  -9.2965
 5.55000    5.00     5.00   0.37627  -9.2990
 5.60000    5.00     5.00   0.38054  -9.3014
 5.65000    5.00     5.00   0.38394  -9.3030
 5.70000    5.00     5.00   0.38801  -9.3057
 5.75000    5.00     5.00   0.39354  -9.3076
 5.80000    5.00     5.00   0.39919  -9.3090
 5.85000    5.00     5.00   0.40140  -9.3111
 5.90000    5.00     5.00   0.40788  -9.3130
 5.95000    5.00     5.00   0.41276  -9.3150
 6.00000    5.00     5.00   0.41766  -9.3160
 6.05000    5.00     5.00   0.42380  -9.3172
 6.10000    5.00     5.00   0.42870  -9.3188
 6.15000    5.00     5.00   0.43372  -9.3195
 6.20000    5.00     5.00   0.44067  -9.3211
 6.25000    5.00     5.00   0.44450  -9.3214
 6.30000    5.00     5.00   0.44980  -9.3225
 6.35000    5.00     5.00   0.45945  -9.3228
 6.40000    5.00     5.00   0.46269  -9.3238
 6.45000    5.00     5.00   0.46899  -9.3243
 6.50000    5.00     5.00   0.47278  -9.3245
 6.55000    5.00     5.00   0.47964  -9.3245
 6.60000    5.00     5.00   0.48538  -9.3250
 6.65000    5.00     5.00   0.49245  -9.3243
 6.70000    5.00     5.00   0.49883  -9.3246
 6.75000    5.00     5.00   0.50387  -9.3239
 6.80000    5.00     5.00   0.50658  -9.3234
 6.85000    5.00     5.00   0.51253  -9.3230
 6.90000    5.00     5.00   0.51758  -9.3228
 6.95000    5.00     5.00   0.52277  -9.3220
 7.00000    5.00     5.00   0.52635  -9.3215
