 Field[T] Tsmpl[K] Tcntr[K] Signal   Mirror[MM]
 0.00000    4.81     2.95   1.10735  1.5896
 0.05000    4.80     2.95   1.10715  1.5897
 0.10000    4.78     2.94   1.10702  1.5898
 0.15000    4.77     2.96   1.10693  1.5899
 0.20000    4.77     2.94   1.10664  1.5900
 0.25000    4.76     2.94   1.10639  1.5901
 0.30000    4.76     2.95   1.10624  1.5900
 0.35000    4.75     2.94   1.10560  1.5902
 0.40000    4.75     2.95   1.10556  1.5903
 0.45000    4.75     2.92   1.10504  1.5902
 0.50000    4.74     2.94   1.10460  1.5903
 0.55000    4.73     2.95   1.10447  1.5904
 0.60000    4.72     2.94   1.10427  1.5904
 0.65000    4.71     2.93   1.10385  1.5904
 0.70000    4.71     2.95   1.10305  1.5904
 0.75000    4.70     2.94   1.10332  1.5904
 0.80000    4.70     2.94   1.10281  1.5907
 0.85000    4.68     2.95   1.10210  1.5909
 0.90000    4.68     2.94   1.10214  1.5909
 0.95000    4.67     2.95   1.10167  1.5908
 1.00000    4.67     2.95   1.10116  1.5909
 1.05000    4.66     2.93   1.10042  1.5909
 1.10000    4.65     2.92   1.10059  1.5910
 1.15000    4.64     2.95   1.09954  1.5910
 1.20000    4.63     2.92   1.09893  1.5911
 1.25000    4.62     2.93   1.09890  1.5908
 1.30000    4.61     2.94   1.09838  1.5910
 1.35000    4.61     2.94   1.09770  1.5914
 1.40000    4.61     2.93   1.09705  1.5915
 1.45000    4.59     2.95   1.09640  1.5912
 1.50000    4.59     2.93   1.09573  1.5913
 1.55000    4.59     2.93   1.09449  1.5916
 1.60000    4.59     2.95   1.09383  1.5915
 1.65000    4.60     2.94   1.09282  1.5917
 1.70000    4.60     2.95   1.09139  1.5918
 1.75000    4.61     2.95   1.08961  1.5919
 1.80000    4.60     2.92   1.08740  1.5921
 1.85000    4.59     2.95   1.08403  1.5921
 1.90000    4.59     2.94   1.07832  1.5922
 1.95000    4.59     2.95   1.07126  1.5917
 2.00000    4.59     2.95   1.06700  1.5911
 2.05000    4.59     2.96   1.06771  1.5904
 2.10000    4.59     2.96   1.07093  1.5898
 2.15000    4.59     2.95   1.07549  1.5899
 2.20000    4.58     2.93   1.07891  1.5898
 2.25000    4.57     2.95   1.08137  1.5900
 2.30000    4.57     2.95   1.08339  1.5899
 2.35000    4.56     2.95   1.08363  1.5899
 2.40000    4.56     2.96   1.08367  1.5900
 2.45000    4.57     2.97   1.08344  1.5901
 2.50000    4.57     2.97   1.08306  1.5904
 2.55000    4.57     2.97   1.08264  1.5903
 2.60000    4.57     2.97   1.08204  1.5903
 2.65000    4.58     2.98   1.08136  1.5904
 2.70000    4.58     2.99   1.08109  1.5904
 2.75000    4.59     2.98   1.08110  1.5903
 2.80000    4.59     2.99   1.08131  1.5901
 2.85000    4.59     2.99   1.08167  1.5901
 2.90000    4.60     2.99   1.08220  1.5902
 2.95000    4.60     3.00   1.08250  1.5900
 3.00000    4.61     3.00   1.08246  1.5900
 3.05000    4.62     3.01   1.08286  1.5900
 3.10000    4.62     3.00   1.08326  1.5900
 3.15000    4.63     3.00   1.08415  1.5900
 3.20000    4.64     3.00   1.08389  1.5901
 3.25000    4.64     3.01   1.08438  1.5903
 3.30000    4.64     3.01   1.08510  1.5902
 3.35000    4.64     3.00   1.08533  1.5903
 3.40000    4.64     3.00   1.08480  1.5902
 3.45000    4.64     3.02   1.08518  1.5904
 3.50000    4.65     3.01   1.08563  1.5903
 3.55000    4.65     3.01   1.08529  1.5903
 3.60000    4.65     3.01   1.08572  1.5902
 3.65000    4.66     3.01   1.08592  1.5903
 3.70000    4.66     3.02   1.08543  1.5904
 3.75000    4.67     3.01   1.08580  1.5904
 3.80000    4.67     3.01   1.08550  1.5904
 3.85000    4.68     3.03   1.08589  1.5906
 3.90000    4.69     3.02   1.08553  1.5906
 3.95000    4.69     3.02   1.08538  1.5906
 4.00000    4.69     3.02   1.08516  1.5907
 4.00000    4.70     3.02   1.08524  1.5907
 3.95000    4.70     3.01   1.08549  1.5906
 3.90000    4.70     3.01   1.08566  1.5906
 3.85000    4.72     3.03   1.08570  1.5907
 3.80000    4.73     3.02   1.08603  1.5904
 3.75000    4.75     3.04   1.08574  1.5905
 3.70000    4.78     3.04   1.08596  1.5908
 3.65000    4.80     3.05   1.08604  1.5904
 3.60000    4.81     3.04   1.08665  1.5904
 3.55000    4.83     3.07   1.08624  1.5904
 3.50000    4.85     3.07   1.08644  1.5903
 3.45000    4.87     3.06   1.08670  1.5904
 3.40000    4.89     3.06   1.08679  1.5906
 3.35000    4.90     3.07   1.08664  1.5904
 3.30000    4.91     3.07   1.08664  1.5905
 3.25000    4.93     3.09   1.08647  1.5906
 3.20000    4.95     3.08   1.08643  1.5906
 3.15000    4.96     3.08   1.08579  1.5906
 3.10000    4.97     3.07   1.08584  1.5906
 3.05000    4.98     3.09   1.08539  1.5906
 3.00000    4.99     3.08   1.08498  1.5906
 2.95000    5.00     3.07   1.08441  1.5904
 2.90000    5.00     3.08   1.08409  1.5905
 2.85000    5.01     3.07   1.08425  1.5907
 2.80000    5.01     3.07   1.08388  1.5905
 2.75000    5.02     3.06   1.08361  1.5907
 2.70000    5.02     3.05   1.08369  1.5907
 2.65000    5.03     3.06   1.08379  1.5907
 2.60000    5.03     3.06   1.08455  1.5907
 2.55000    5.03     3.05   1.08471  1.5909
 2.50000    5.03     3.06   1.08534  1.5909
 2.45000    5.04     3.04   1.08569  1.5909
 2.40000    5.04     3.04   1.08608  1.5908
 2.35000    5.04     3.04   1.08589  1.5906
 2.30000    5.05     3.06   1.08528  1.5906
 2.25000    5.06     3.04   1.08386  1.5904
 2.20000    5.07     3.06   1.08146  1.5903
 2.15000    5.08     3.04   1.07822  1.5902
 2.10000    5.09     3.03   1.07401  1.5902
 2.05000    5.09     3.05   1.07026  1.5908
 2.00000    5.11     3.03   1.07029  1.5913
 1.95000    5.11     3.03   1.07384  1.5924
 1.90000    5.11     3.02   1.08004  1.5927
 1.85000    5.11     3.02   1.08548  1.5929
 1.80000    5.12     3.03   1.08895  1.5928
 1.75000    5.12     3.01   1.09141  1.5925
 1.70000    5.12     3.01   1.09264  1.5922
 1.65000    5.12     3.01   1.09411  1.5921
 1.60000    5.12     3.02   1.09519  1.5919
 1.55000    5.12     3.01   1.09608  1.5919
 1.50000    5.12     3.01   1.09626  1.5917
 1.45000    5.11     3.02   1.09725  1.5916
 1.40000    5.11     3.00   1.09771  1.5915
 1.35000    5.10     3.01   1.09806  1.5914
 1.30000    5.09     3.03   1.09986  1.5917
 1.25000    5.08     3.01   1.10145  1.5916
 1.20000    5.06     3.02   1.10225  1.5914
 1.15000    5.05     3.02   1.10293  1.5913
 1.10000    5.05     3.00   1.10341  1.5913
 1.05000    5.03     3.00   1.10353  1.5915
 1.00000    5.02     2.99   1.10427  1.5910
 0.95000    5.01     3.00   1.10455  1.5911
 0.90000    5.00     3.00   1.10506  1.5910
 0.85000    4.99     2.99   1.10564  1.5911
 0.80000    4.97     3.00   1.10565  1.5909
 0.75000    4.97     2.99   1.10711  1.5909
 0.70000    4.96     2.99   1.10874  1.5907
 0.65000    4.95     2.99   1.10943  1.5906
 0.60000    4.95     2.99   1.10918  1.5906
 0.55000    4.94     3.00   1.10873  1.5907
 0.50000    4.93     2.99   1.10880  1.5906
 0.45000    4.93     3.01   1.10824  1.5904
 0.40000    4.94     2.99   1.10825  1.5902
 0.35000    4.94     2.99   1.10789  1.5903
 0.30000    4.94     2.99   1.10823  1.5901
 0.25000    4.94     2.99   1.10823  1.5902
 0.20000    4.94     3.01   1.10865  1.5902
 0.15000    4.93     2.99   1.10900  1.5900
 0.10000    4.92     2.99   1.11062  1.5898
 0.05000    4.91     2.99   1.11206  1.5899
-0.00000    4.90     3.00   1.11148  1.5898
