 Field[T] Tsmpl[K] Tcntr[K] Signal
 0.00000    4.68     2.97   4.90110
 0.05000    4.68     2.97   4.89690
 0.10000    4.67     2.96   4.90240
 0.15000    4.67     2.95   4.89780
 0.20000    4.66     2.96   4.90420
 0.25000    4.65     2.96   4.90110
 0.30000    4.65     2.97   4.89900
 0.35000    4.64     2.97   4.90010
 0.40000    4.64     2.97   4.90700
 0.45000    4.64     2.97   4.90050
 0.50000    4.63     2.97   4.89690
 0.55000    4.62     2.97   4.89640
 0.60000    4.62     2.99   4.89500
 0.65000    4.61     2.97   4.89200
 0.70000    4.60     2.98   4.89440
 0.75000    4.60     2.98   4.89400
 0.80000    4.59     2.97   4.89270
 0.85000    4.58     2.98   4.89360
 0.90000    4.57     2.98   4.89140
 0.95000    4.57     2.97   4.89380
 1.00000    4.55     2.95   4.88710
 1.05000    4.53     2.95   4.88550
 1.10000    4.52     2.95   4.87900
 1.15000    4.51     2.97   4.87480
 1.20000    4.50     2.95   4.86970
 1.25000    4.49     2.94   4.86680
 1.30000    4.48     2.94   4.86160
 1.35000    4.47     2.95   4.85470
 1.40000    4.47     2.95   4.85140
 1.45000    4.47     2.95   4.84410
 1.50000    4.47     2.96   4.84070
 1.55000    4.48     2.95   4.83230
 1.60000    4.48     2.94   4.82620
 1.65000    4.47     2.94   4.81630
 1.70000    4.47     2.94   4.80870
 1.75000    4.48     2.95   4.80060
 1.80000    4.48     2.95   4.79320
 1.85000    4.50     2.97   4.79450
 1.90000    4.52     2.97   4.79560
 1.95000    4.54     2.97   4.80100
 2.00000    4.55     2.97   4.79960
 2.05000    4.57     2.97   4.80360
 2.10000    4.59     2.98   4.79970
 2.15000    4.60     2.97   4.79950
 2.20000    4.62     2.97   4.80080
 2.25000    4.63     3.00   4.79800
 2.30000    4.66     2.98   4.79320
 2.35000    4.66     2.99   4.79470
 2.40000    4.67     2.99   4.79380
 2.45000    4.68     3.00   4.78880
 2.50000    4.70     2.99   4.79100
 2.55000    4.71     2.99   4.79140
 2.60000    4.72     2.99   4.78500
 2.65000    4.73     3.01   4.78640
 2.70000    4.74     3.00   4.78910
 2.75000    4.74     3.00   4.78660
 2.80000    4.74     3.00   4.78680
 2.85000    4.74     3.01   4.78580
 2.90000    4.74     3.00   4.78610
 2.95000    4.74     3.00   4.78400
 3.00000    4.75     3.01   4.77990
 3.05000    4.75     3.01   4.78260
 3.10000    4.75     3.02   4.78090
 3.15000    4.76     3.01   4.78530
 3.20000    4.76     3.01   4.77980
 3.25000    4.77     3.01   4.77560
 3.30000    4.77     3.02   4.77260
 3.35000    4.78     3.02   4.76810
 3.40000    4.79     3.03   4.76430
 3.45000    4.80     3.02   4.76200
 3.50000    4.81     3.02   4.75910
 3.55000    4.82     3.03   4.75610
 3.60000    4.84     3.02   4.75460
 3.65000    4.84     3.03   4.75450
 3.70000    4.86     3.03   4.75240
 3.75000    4.87     3.03   4.74880
 3.80000    4.89     3.02   4.74800
 3.85000    4.90     3.02   4.74670
 3.90000    4.92     3.05   4.74460
 3.95000    4.94     3.04   4.74150
 4.00000    4.96     0.00   4.73880
 4.05000    4.97     3.03   4.73960
 4.10000    4.99     3.03   4.73600
 4.15000    5.00     3.03   4.73480
 4.20000    5.01     3.03   4.73410
 4.25000    5.02     3.04   4.73630
 4.30000    5.03     3.03   4.73070
 4.35000    5.03     0.00   4.72890
 4.40000    5.03     3.03   4.72690
 4.45000    5.02     3.03   4.72470
 4.50000    5.01     3.03   4.72390
 4.55000    5.01     3.04   4.72060
 4.60000    5.01     3.03   4.71950
 4.65000    0.00     3.03   4.71730
 4.70000    5.00     3.03   4.71540
 4.75000    5.00     3.03   4.71230
 4.80000    5.00     3.02   4.71320
 4.85000    5.00     3.04   4.70990
 4.90000    5.01     3.05   4.70780
 4.95000    5.02     3.04   4.70710
 5.00000    5.03     3.04   4.70630
 5.00000    5.03     3.03   4.70400
 4.95000    5.03     3.03   4.70610
 4.90000    5.03     3.04   4.70690
 4.85000    5.03     3.07   4.70830
 4.80000    5.04     3.06   4.70960
 4.75000    5.06     3.09   4.71560
 4.70000    5.07     3.09   4.71580
 4.65000    5.09     3.09   4.71690
 4.60000    5.10     3.10   4.71920
 4.55000    5.13     3.11   4.72420
 4.50000    5.15     3.10   4.72460
 4.45000    5.16     3.11   4.73010
 4.40000    5.18     3.10   4.72950
 4.35000    5.19     3.11   4.73440
 4.30000    5.20     3.11   4.73590
 4.25000    5.21     3.10   4.73720
 4.20000    5.22     3.10   4.73960
 4.15000    5.23     3.11   4.74470
 4.10000    5.24     3.09   4.74570
 4.05000    5.24     3.09   4.74790
 4.00000    5.25     3.10   4.75170
 3.95000    5.26     3.09   4.75020
 3.90000    5.26     3.08   4.75360
 3.85000    5.27     3.08   4.75790
 3.80000    5.28     3.07   4.76060
 3.75000    5.28     3.07   4.76330
 3.70000    5.28     3.07   4.76740
 3.65000    5.29     3.06   4.76880
 3.60000    5.29     3.06   4.77290
 3.55000    5.30     3.06   4.77490
 3.50000    5.30     3.06   4.78360
 3.45000    5.31     3.06   4.78580
 3.40000    5.32     3.06   4.78850
 3.35000    5.32     3.05   4.79040
 3.30000    5.33     3.05   4.78690
 3.25000    5.33     3.04   4.78530
 3.20000    5.34     3.04   4.78940
 3.15000    5.34     3.06   4.79200
 3.10000    5.35     3.05   4.79030
 3.05000    5.36     3.04   4.78990
 3.00000    5.36     3.05   4.79370
 2.95000    5.37     3.03   4.79250
 2.90000    5.38     3.03   4.79350
 2.85000    5.38     3.03   4.79570
 2.80000    5.38     3.03   4.79630
 2.75000    5.38     3.04   4.79620
 2.70000    5.39     3.02   4.79550
 2.65000    5.40     3.02   4.79930
 2.60000    5.40     3.03   4.80180
 2.55000    5.41     3.03   4.80050
 2.50000    5.42     3.03   4.80180
 2.45000    5.43     3.02   4.80780
 2.40000    5.43     3.02   4.80880
 2.35000    5.44     3.04   4.81220
 2.30000    5.45     3.02   4.81560
 2.25000    5.46     3.02   4.81600
 2.20000    5.46     3.02   4.81860
 2.15000    5.46     3.03   4.81840
 2.10000    5.46     3.02   4.82160
 2.05000    5.46     3.02   4.82260
 2.00000    5.46     3.01   4.81960
 1.95000    5.46     3.03   4.81690
 1.90000    5.46     3.01   4.81100
 1.85000    5.45     3.01   4.81110
 1.80000    5.45     3.00   4.81120
 1.75000    5.44     3.01   4.81970
 1.70000    5.44     3.00   4.83300
 1.65000    5.43     3.01   4.84590
 1.60000    5.43     3.00   4.85210
 1.55000    5.42     3.02   4.85060
 1.50000    5.42     3.00   4.85720
 1.45000    5.41     2.99   4.86500
 1.40000    5.40     3.00   4.86370
 1.35000    5.40     3.01   4.87090
 1.30000    5.39     3.01   4.87670
 1.25000    5.38     3.00   4.87970
 1.20000    5.37     3.01   4.88430
 1.15000    5.36     3.02   4.88450
 1.10000    5.36     3.00   4.89180
 1.05000    5.35     3.00   4.89100
 1.00000    5.34     3.02   4.89190
 0.95000    5.34     3.00   4.89650
 0.90000    5.33     2.99   4.89840
 0.85000    5.32     3.01   4.89980
 0.80000    5.31     3.00   4.90270
 0.75000    5.30     2.99   4.90240
 0.70000    5.29     3.01   4.90930
 0.65000    5.28     2.99   4.90820
 0.60000    5.27     3.00   4.91070
 0.55000    5.27     3.01   4.91010
 0.50000    5.26     3.01   4.91210
 0.45000    5.26     3.00   4.91280
 0.40000    5.26     3.00   4.91400
 0.35000    5.25     2.99   4.91260
 0.30000    5.26     2.99   4.91770
 0.25000    5.27     3.01   4.91850
 0.20000    5.28     2.99   4.92110
 0.15000    5.29     3.00   4.91950
 0.10000    5.30     2.99   4.92260
 0.05000    5.31     3.01   4.92460
-0.00000    5.32     2.99   4.92300
