 Field[T] Tsmpl[K] Tcntr[K] Signal   Mirror[MM]
 0.00000    1.76     1.76   0.50092  -10.9514
 0.05000    1.76     1.76   0.50044  -10.9515
 0.10000    1.76     1.76   0.50013  -10.9515
 0.15000    1.76     1.76   0.49973  -10.9513
 0.20000    1.76     1.76   0.49954  -10.9509
 0.25000    1.76     1.76   0.49906  -10.9512
 0.30000    1.76     1.76   0.49866  -10.9507
 0.35000    1.76     1.76   0.49777  -10.9506
 0.40000    1.76     1.76   0.49755  -10.9504
 0.45000    1.76     1.76   0.49656  -10.9500
 0.50000    1.76     1.76   0.49476  -10.9494
 0.55000    1.76     1.76   0.49299  -10.9489
 0.60000    1.76     1.76   0.49113  -10.9492
 0.65000    1.76     1.76   0.48875  -10.9494
 0.70000    1.76     1.76   0.48679  -10.9499
 0.75000    1.76     1.76   0.48424  -10.9507
 0.80000    1.76     1.76   0.48183  -10.9516
 0.85000    1.76     1.76   0.48007  -10.9529
 0.90000    1.76     1.76   0.47876  -10.9543
 0.95000    1.76     1.76   0.47746  -10.9558
 1.00000    1.76     1.76   0.47664  -10.9577
 1.05000    1.76     1.76   0.47637  -10.9591
 1.10000    1.76     1.76   0.47653  -10.9605
 1.15000    1.76     1.76   0.47640  -10.9620
 1.20000    1.76     1.76   0.47656  -10.9635
 1.25000    1.76     1.76   0.47667  -10.9644
 1.30000    1.76     1.76   0.47691  -10.9657
 1.35000    1.76     1.76   0.47726  -10.9662
 1.40000    1.76     1.76   0.47801  -10.9671
 1.45000    1.76     1.76   0.47865  -10.9676
 1.50000    1.76     1.76   0.47928  -10.9683
 1.55000    1.76     1.76   0.48011  -10.9693
 1.60000    1.76     1.76   0.48033  -10.9699
 1.65000    1.76     1.76   0.48056  -10.9703
 1.70000    1.76     1.76   0.48158  -10.9705
 1.75000    1.76     1.76   0.48195  -10.9709
 1.80000    1.76     1.76   0.48225  -10.9715
 1.85000    1.76     1.76   0.48287  -10.9717
 1.90000    1.76     1.76   0.48325  -10.9719
 1.95000    1.76     1.76   0.48340  -10.9720
 2.00000    1.76     1.76   0.48397  -10.9719
 2.05000    1.76     1.76   0.48442  -10.9720
 2.10000    1.76     1.76   0.48420  -10.9721
 2.15000    1.76     1.76   0.48443  -10.9725
 2.20000    1.76     1.76   0.48468  -10.9727
 2.25000    1.76     1.76   0.48497  -10.9728
 2.30000    1.76     1.76   0.48498  -10.9729
 2.35000    1.76     1.76   0.48529  -10.9731
 2.40000    1.76     1.76   0.48514  -10.9730
 2.45000    1.76     1.76   0.48551  -10.9730
 2.50000    1.76     1.76   0.48531  -10.9735
 2.55000    1.76     1.76   0.48533  -10.9737
 2.60000    1.76     1.76   0.48542  -10.9738
 2.65000    1.76     1.76   0.48549  -10.9738
 2.70000    1.76     1.76   0.48546  -10.9738
 2.75000    1.76     1.76   0.48551  -10.9738
 2.80000    1.76     1.76   0.48501  -10.9741
 2.85000    1.76     1.76   0.48524  -10.9739
 2.90000    1.76     1.76   0.48533  -10.9742
 2.95000    1.76     1.76   0.48523  -10.9744
 3.00000    1.76     1.76   0.48500  -10.9745
 3.05000    1.76     1.76   0.48529  -10.9743
 3.10000    1.76     1.76   0.48528  -10.9744
 3.15000    1.76     1.76   0.48507  -10.9744
 3.20000    1.76     1.76   0.48479  -10.9746
 3.25000    1.76     1.76   0.48496  -10.9746
 3.30000    1.76     1.76   0.48483  -10.9748
 3.35000    1.76     1.76   0.48478  -10.9750
 3.40000    1.76     1.76   0.48469  -10.9753
 3.45000    1.76     1.76   0.48456  -10.9754
 3.50000    1.76     1.76   0.48437  -10.9754
 3.55000    1.76     1.76   0.48410  -10.9757
 3.60000    1.76     1.76   0.48424  -10.9756
 3.65000    1.76     1.76   0.48411  -10.9752
 3.70000    1.76     1.76   0.48386  -10.9754
 3.75000    1.76     1.76   0.48387  -10.9757
 3.80000    1.76     1.76   0.48386  -10.9757
 3.85000    1.76     1.76   0.48359  -10.9755
 3.90000    1.76     1.76   0.48379  -10.9758
 3.95000    1.76     1.76   0.48353  -10.9760
 4.00000    1.76     1.76   0.48314  -10.9760
 4.00000    1.76     1.76   0.48330  -10.9761
 3.95000    1.76     1.76   0.48322  -10.9760
 3.90000    1.76     1.76   0.48273  -10.9760
 3.85000    1.76     1.76   0.48269  -10.9762
 3.80000    1.76     1.76   0.48251  -10.9760
 3.75000    1.76     1.76   0.48220  -10.9763
 3.70000    1.76     1.76   0.48216  -10.9761
 3.65000    1.76     1.76   0.48196  -10.9762
 3.60000    1.76     1.76   0.48168  -10.9763
 3.55000    1.76     1.76   0.48163  -10.9766
 3.50000    1.76     1.76   0.48146  -10.9768
 3.45000    1.76     1.76   0.48133  -10.9762
 3.40000    1.76     1.76   0.48120  -10.9763
 3.35000    1.76     1.76   0.48102  -10.9764
 3.30000    1.76     1.76   0.48079  -10.9764
 3.25000    1.76     1.76   0.48022  -10.9764
 3.20000    1.76     1.76   0.48014  -10.9765
 3.15000    1.76     1.76   0.47981  -10.9766
 3.10000    1.76     1.76   0.47990  -10.9764
 3.05000    1.76     1.76   0.48001  -10.9765
 3.00000    1.76     1.76   0.47958  -10.9764
 2.95000    1.76     1.76   0.47946  -10.9767
 2.90000    1.76     1.76   0.47909  -10.9766
 2.85000    1.76     1.76   0.47889  -10.9767
 2.80000    1.76     1.76   0.47837  -10.9764
 2.75000    1.76     1.76   0.47828  -10.9767
 2.70000    1.76     1.76   0.47797  -10.9765
 2.65000    1.76     1.76   0.47802  -10.9765
 2.60000    1.76     1.76   0.47722  -10.9766
 2.55000    1.76     1.76   0.47728  -10.9765
 2.50000    1.76     1.76   0.47706  -10.9765
 2.45000    1.76     1.76   0.47672  -10.9766
 2.40000    1.76     1.76   0.47671  -10.9766
 2.35000    1.76     1.76   0.47640  -10.9764
 2.30000    1.76     1.76   0.47591  -10.9765
 2.25000    1.76     1.76   0.47536  -10.9765
 2.20000    1.76     1.76   0.47469  -10.9762
 2.15000    1.76     1.76   0.47404  -10.9757
 2.10000    1.76     1.76   0.47398  -10.9759
 2.05000    1.76     1.76   0.47370  -10.9759
 2.00000    1.76     1.76   0.47319  -10.9757
 1.95000    1.76     1.76   0.47224  -10.9758
 1.90000    1.76     1.76   0.47176  -10.9753
 1.85000    1.76     1.76   0.47147  -10.9749
 1.80000    1.76     1.76   0.47082  -10.9748
 1.75000    1.76     1.76   0.46993  -10.9744
 1.70000    1.76     1.76   0.46966  -10.9743
 1.65000    1.76     1.76   0.46888  -10.9737
 1.60000    1.76     1.76   0.46824  -10.9734
 1.55000    1.76     1.76   0.46731  -10.9730
 1.50000    1.76     1.76   0.46662  -10.9723
 1.45000    1.76     1.76   0.46575  -10.9717
 1.40000    1.76     1.76   0.46536  -10.9709
 1.35000    1.76     1.76   0.46471  -10.9702
 1.30000    1.76     1.76   0.46409  -10.9692
 1.25000    1.76     1.76   0.46348  -10.9681
 1.20000    1.76     1.76   0.46304  -10.9670
 1.15000    1.76     1.76   0.46276  -10.9659
 1.10000    1.76     1.76   0.46250  -10.9644
 1.05000    1.76     1.76   0.46257  -10.9630
 1.00000    1.76     1.76   0.46262  -10.9617
 0.95000    1.76     1.76   0.46320  -10.9601
 0.90000    1.76     1.76   0.46414  -10.9585
 0.85000    1.76     1.76   0.46544  -10.9570
 0.80000    1.76     1.76   0.46689  -10.9556
 0.75000    1.76     1.76   0.46903  -10.9547
 0.70000    1.76     1.76   0.47114  -10.9541
 0.65000    1.76     1.76   0.47297  -10.9537
 0.60000    1.76     1.76   0.47492  -10.9534
 0.55000    1.76     1.76   0.47659  -10.9536
 0.50000    1.76     1.76   0.47802  -10.9532
 0.45000    1.76     1.76   0.47989  -10.9537
 0.40000    1.76     1.76   0.48060  -10.9543
 0.35000    1.76     1.76   0.48138  -10.9547
 0.30000    1.76     1.76   0.48169  -10.9548
 0.25000    1.76     1.76   0.48172  -10.9551
 0.20000    1.76     1.76   0.48174  -10.9553
 0.15000    1.76     1.76   0.48181  -10.9551
 0.10000    1.76     1.76   0.48228  -10.9553
 0.05000    1.76     1.76   0.48213  -10.9554
 -0.00000    1.76     1.76   0.48214  -10.9548
