 Field[T] Tsmpl[K] Tcntr[K] Signal   Mirror[MM]
 0.00000    1.79     1.79   0.71388  -10.9156
 0.05000    1.79     1.79   0.71375  -10.9152
 0.10000    1.79     1.79   0.71395  -10.9151
 0.15000    1.79     1.79   0.71453  -10.9153
 0.20000    1.79     1.79   0.71407  -10.9150
 0.25000    1.79     1.79   0.71441  -10.9153
 0.30000    1.79     1.79   0.71374  -10.9152
 0.35000    1.79     1.79   0.71378  -10.9153
 0.40000    1.79     1.79   0.71352  -10.9152
 0.45000    1.79     1.79   0.71330  -10.9152
 0.50000    1.79     1.79   0.71234  -10.9152
 0.55000    1.79     1.79   0.71189  -10.9153
 0.60000    1.79     1.79   0.71123  -10.9153
 0.65000    1.79     1.79   0.71098  -10.9153
 0.70000    1.79     1.79   0.71018  -10.9151
 0.75000    1.79     1.79   0.70840  -10.9148
 0.80000    1.79     1.79   0.70680  -10.9151
 0.85000    1.79     1.79   0.70542  -10.9156
 0.90000    1.79     1.79   0.70367  -10.9159
 0.95000    1.79     1.79   0.70230  -10.9165
 1.00000    1.79     1.79   0.70104  -10.9163
 1.05000    1.79     1.79   0.69986  -10.9167
 1.10000    1.79     1.79   0.69870  -10.9171
 1.15000    1.79     1.79   0.69720  -10.9175
 1.20000    1.79     1.79   0.69667  -10.9179
 1.25000    1.79     1.79   0.69593  -10.9185
 1.30000    1.79     1.79   0.69495  -10.9190
 1.35000    1.79     1.79   0.69402  -10.9192
 1.40000    1.79     1.79   0.69318  -10.9196
 1.45000    1.79     1.79   0.69261  -10.9201
 1.50000    1.79     1.79   0.69184  -10.9207
 1.55000    1.79     1.79   0.69131  -10.9220
 1.60000    1.79     1.79   0.69103  -10.9219
 1.65000    1.79     1.79   0.69094  -10.9227
 1.70000    1.79     1.79   0.69028  -10.9232
 1.75000    1.79     1.79   0.69091  -10.9237
 1.80000    1.79     1.79   0.69101  -10.9246
 1.85000    1.79     1.79   0.69156  -10.9250
 1.90000    1.79     1.79   0.69217  -10.9256
 1.95000    1.79     1.79   0.69292  -10.9262
 2.00000    1.79     1.79   0.69343  -10.9264
 2.05000    1.79     1.79   0.69423  -10.9268
 2.10000    1.79     1.79   0.69493  -10.9271
 2.15000    1.79     1.79   0.69583  -10.9276
 2.20000    1.79     1.79   0.69652  -10.9283
 2.25000    1.79     1.79   0.69761  -10.9282
 2.30000    1.79     1.79   0.69852  -10.9285
 2.35000    1.79     1.79   0.69923  -10.9284
 2.40000    1.79     1.79   0.70020  -10.9286
 2.45000    1.79     1.79   0.70063  -10.9291
 2.50000    1.79     1.79   0.70097  -10.9292
 2.55000    1.79     1.79   0.70177  -10.9295
 2.60000    1.79     1.79   0.70274  -10.9294
 2.65000    1.79     1.79   0.70377  -10.9297
 2.70000    1.79     1.79   0.70386  -10.9297
 2.75000    1.79     1.79   0.70470  -10.9298
 2.80000    1.79     1.79   0.70471  -10.9300
 2.85000    1.79     1.79   0.70507  -10.9301
 2.90000    1.79     1.79   0.70555  -10.9298
 2.95000    1.79     1.79   0.70585  -10.9301
 3.00000    1.79     1.79   0.70657  -10.9304
 3.05000    1.79     1.79   0.70670  -10.9304
 3.10000    1.79     1.79   0.70666  -10.9304
 3.15000    1.79     1.79   0.70752  -10.9305
 3.20000    1.79     1.79   0.70750  -10.9305
 3.25000    1.79     1.79   0.70770  -10.9305
 3.30000    1.79     1.79   0.70822  -10.9307
 3.35000    1.79     1.79   0.70859  -10.9309
 3.40000    1.79     1.79   0.70900  -10.9308
 3.45000    1.79     1.79   0.70903  -10.9309
 3.50000    1.79     1.79   0.70881  -10.9307
 3.55000    1.79     1.79   0.70972  -10.9308
 3.60000    1.79     1.79   0.70948  -10.9309
 3.65000    1.79     1.79   0.70972  -10.9309
 3.70000    1.79     1.79   0.70997  -10.9310
 3.75000    1.79     1.79   0.70972  -10.9316
 3.80000    1.79     1.79   0.70975  -10.9314
 3.85000    1.79     1.79   0.71017  -10.9315
 3.90000    1.79     1.79   0.71025  -10.9315
 3.95000    1.79     1.79   0.71006  -10.9314
 4.00000    1.79     1.79   0.70984  -10.9317
 4.05000    1.79     1.79   0.71028  -10.9314
 4.10000    1.79     1.79   0.71043  -10.9313
 4.15000    1.79     1.79   0.71069  -10.9315
 4.20000    1.79     1.79   0.71032  -10.9314
 4.25000    1.79     1.79   0.71120  -10.9316
 4.30000    1.79     1.79   0.71056  -10.9317
 4.35000    1.79     1.79   0.71095  -10.9320
 4.40000    1.79     1.79   0.71097  -10.9320
 4.45000    1.79     1.79   0.71138  -10.9323
 4.50000    1.79     1.79   0.71101  -10.9322
 4.55000    1.79     1.79   0.71142  -10.9326
 4.60000    1.79     1.79   0.71110  -10.9326
 4.65000    1.79     1.79   0.71063  -10.9322
 4.70000    1.79     1.79   0.71093  -10.9323
 4.75000    1.79     1.79   0.71102  -10.9323
 4.80000    1.79     1.79   0.71080  -10.9325
 4.85000    1.79     1.79   0.71079  -10.9325
 4.90000    1.79     1.79   0.71108  -10.9327
 4.95000    1.79     1.79   0.71114  -10.9327
 5.00000    1.79     1.79   0.71116  -10.9330
 5.00000    1.79     1.79   0.71093  -10.9326
 4.95000    1.79     1.79   0.71112  -10.9327
 4.90000    1.79     1.79   0.71097  -10.9327
 4.85000    1.79     1.79   0.71120  -10.9328
 4.80000    1.79     1.79   0.71135  -10.9330
 4.75000    1.79     1.79   0.71072  -10.9328
 4.70000    1.79     1.79   0.71081  -10.9328
 4.65000    1.79     1.79   0.71093  -10.9332
 4.60000    1.79     1.79   0.71058  -10.9332
 4.55000    1.79     1.79   0.71066  -10.9331
 4.50000    1.79     1.79   0.71079  -10.9331
 4.45000    1.79     1.79   0.71095  -10.9331
 4.40000    1.79     1.79   0.71041  -10.9332
 4.35000    1.79     1.79   0.71049  -10.9333
 4.30000    1.79     1.79   0.71028  -10.9333
 4.25000    1.79     1.79   0.71030  -10.9332
 4.20000    1.79     1.79   0.71036  -10.9332
 4.15000    1.79     1.79   0.71025  -10.9331
 4.10000    1.79     1.79   0.71023  -10.9332
 4.05000    1.79     1.79   0.70960  -10.9331
 4.00000    1.79     1.79   0.71010  -10.9332
 3.95000    1.79     1.79   0.70995  -10.9332
 3.90000    1.79     1.79   0.70965  -10.9335
 3.85000    1.79     1.79   0.70962  -10.9338
 3.80000    1.79     1.79   0.70939  -10.9336
 3.75000    1.79     1.79   0.70921  -10.9337
 3.70000    1.79     1.79   0.70946  -10.9336
 3.65000    1.79     1.79   0.70957  -10.9335
 3.60000    1.79     1.79   0.70945  -10.9336
 3.55000    1.79     1.79   0.70905  -10.9337
 3.50000    1.79     1.79   0.70879  -10.9335
 3.45000    1.79     1.79   0.70833  -10.9338
 3.40000    1.79     1.79   0.70829  -10.9338
 3.35000    1.79     1.79   0.70813  -10.9336
 3.30000    1.79     1.79   0.70799  -10.9339
 3.25000    1.79     1.79   0.70760  -10.9339
 3.20000    1.79     1.79   0.70744  -10.9341
 3.15000    1.79     1.79   0.70705  -10.9337
 3.10000    1.79     1.79   0.70680  -10.9338
 3.05000    1.79     1.79   0.70629  -10.9338
 3.00000    1.79     1.79   0.70639  -10.9338
 2.95000    1.79     1.79   0.70561  -10.9340
 2.90000    1.79     1.79   0.70491  -10.9339
 2.85000    1.79     1.79   0.70521  -10.9337
 2.80000    1.79     1.79   0.70519  -10.9339
 2.75000    1.79     1.79   0.70401  -10.9339
 2.70000    1.79     1.79   0.70342  -10.9337
 2.65000    1.79     1.79   0.70285  -10.9336
 2.60000    1.79     1.79   0.70223  -10.9335
 2.55000    1.79     1.79   0.70164  -10.9334
 2.50000    1.79     1.79   0.70074  -10.9336
 2.45000    1.79     1.79   0.69991  -10.9332
 2.40000    1.79     1.79   0.69889  -10.9334
 2.35000    1.79     1.79   0.69830  -10.9332
 2.30000    1.79     1.79   0.69747  -10.9331
 2.25000    1.79     1.79   0.69689  -10.9328
 2.20000    1.79     1.79   0.69608  -10.9322
 2.15000    1.79     1.79   0.69478  -10.9323
 2.10000    1.79     1.79   0.69394  -10.9322
 2.05000    1.79     1.79   0.69331  -10.9318
 2.00000    1.79     1.79   0.69236  -10.9314
 1.95000    1.79     1.79   0.69133  -10.9309
 1.90000    1.79     1.79   0.69116  -10.9307
 1.85000    1.79     1.79   0.69044  -10.9301
 1.80000    1.79     1.79   0.68984  -10.9296
 1.75000    1.79     1.79   0.68974  -10.9291
 1.70000    1.79     1.79   0.68919  -10.9288
 1.65000    1.79     1.79   0.68909  -10.9280
 1.60000    1.79     1.79   0.68868  -10.9273
 1.55000    1.79     1.79   0.68918  -10.9269
 1.50000    1.79     1.79   0.68995  -10.9261
 1.45000    1.79     1.79   0.69060  -10.9256
 1.40000    1.79     1.79   0.69173  -10.9253
 1.35000    1.79     1.79   0.69252  -10.9246
 1.30000    1.79     1.79   0.69313  -10.9245
 1.25000    1.79     1.79   0.69409  -10.9243
 1.20000    1.79     1.79   0.69453  -10.9237
 1.15000    1.79     1.79   0.69519  -10.9232
 1.10000    1.79     1.79   0.69556  -10.9228
 1.05000    1.79     1.79   0.69675  -10.9223
 1.00000    1.79     1.79   0.69823  -10.9220
 0.95000    1.79     1.79   0.69896  -10.9218
 0.90000    1.79     1.79   0.70028  -10.9216
 0.85000    1.79     1.79   0.70162  -10.9214
 0.80000    1.79     1.79   0.70316  -10.9212
 0.75000    1.79     1.79   0.70518  -10.9208
 0.70000    1.79     1.79   0.70647  -10.9208
 0.65000    1.79     1.79   0.70720  -10.9209
 0.60000    1.79     1.79   0.70784  -10.9212
 0.55000    1.79     1.79   0.70843  -10.9213
 0.50000    1.79     1.79   0.70879  -10.9213
 0.45000    1.79     1.79   0.70927  -10.9211
 0.40000    1.79     1.79   0.70998  -10.9213
 0.35000    1.79     1.79   0.71014  -10.9216
 0.30000    1.79     1.79   0.70986  -10.9217
 0.25000    1.79     1.79   0.70999  -10.9214
 0.20000    1.79     1.79   0.71026  -10.9213
 0.15000    1.79     1.79   0.71011  -10.9213
 0.10000    1.79     1.79   0.71035  -10.9213
 0.05000    1.79     1.79   0.70978  -10.9213
 -0.00000    1.79     1.79   0.71014  -10.9212
