 Field[T] Tsmpl[K] Tcntr[K] Signal   Mirror[MM]
 0.00000    1.79     1.79   0.25042  -10.9465
 0.05000    1.79     1.79   0.25041  -10.9466
 0.10000    1.79     1.79   0.25038  -10.9466
 0.15000    1.79     1.79   0.25025  -10.9466
 0.20000    1.79     1.79   0.25004  -10.9466
 0.25000    1.79     1.79   0.25019  -10.9464
 0.30000    1.79     1.79   0.25043  -10.9464
 0.35000    1.79     1.79   0.25020  -10.9464
 0.40000    1.79     1.79   0.25001  -10.9464
 0.45000    1.79     1.79   0.25009  -10.9464
 0.50000    1.79     1.79   0.25011  -10.9465
 0.55000    1.79     1.79   0.24978  -10.9465
 0.60000    1.79     1.79   0.24965  -10.9463
 0.65000    1.79     1.79   0.24988  -10.9464
 0.70000    1.79     1.79   0.24977  -10.9465
 0.75000    1.79     1.79   0.24954  -10.9466
 0.80000    1.79     1.79   0.24952  -10.9466
 0.85000    1.79     1.79   0.24924  -10.9465
 0.90000    1.79     1.79   0.24917  -10.9465
 0.95000    1.79     1.79   0.24877  -10.9468
 1.00000    1.79     1.79   0.24898  -10.9468
 1.05000    1.79     1.79   0.24856  -10.9471
 1.10000    1.79     1.79   0.24829  -10.9472
 1.15000    1.79     1.79   0.24849  -10.9475
 1.20000    1.79     1.79   0.24833  -10.9476
 1.25000    1.79     1.79   0.24813  -10.9476
 1.30000    1.79     1.79   0.24831  -10.9476
 1.35000    1.79     1.79   0.24798  -10.9481
 1.40000    1.79     1.79   0.24802  -10.9481
 1.45000    1.79     1.79   0.24795  -10.9482
 1.50000    1.79     1.79   0.24790  -10.9484
 1.55000    1.79     1.79   0.24778  -10.9486
 1.60000    1.79     1.79   0.24762  -10.9487
 1.65000    1.79     1.79   0.24760  -10.9490
 1.70000    1.79     1.79   0.24760  -10.9488
 1.75000    1.79     1.79   0.24749  -10.9493
 1.80000    1.79     1.79   0.24756  -10.9496
 1.85000    1.79     1.79   0.24743  -10.9498
 1.90000    1.79     1.79   0.24756  -10.9501
 1.95000    1.79     1.79   0.24767  -10.9503
 2.00000    1.79     1.79   0.24796  -10.9506
 2.05000    1.79     1.79   0.24799  -10.9506
 2.10000    1.79     1.79   0.24796  -10.9506
 2.15000    1.79     1.79   0.24798  -10.9506
 2.20000    1.79     1.79   0.24805  -10.9510
 2.25000    1.79     1.79   0.24824  -10.9510
 2.30000    1.79     1.79   0.24866  -10.9513
 2.35000    1.79     1.79   0.24879  -10.9513
 2.40000    1.79     1.79   0.24861  -10.9514
 2.45000    1.79     1.79   0.24884  -10.9516
 2.50000    1.79     1.79   0.24901  -10.9517
 2.55000    1.79     1.79   0.24921  -10.9511
 2.60000    1.79     1.79   0.24927  -10.9515
 2.65000    1.79     1.79   0.24924  -10.9517
 2.70000    1.79     1.79   0.24943  -10.9518
 2.75000    1.79     1.79   0.24938  -10.9517
 2.80000    1.79     1.79   0.24958  -10.9517
 2.85000    1.79     1.79   0.24954  -10.9515
 2.90000    1.79     1.79   0.24963  -10.9515
 2.95000    1.79     1.79   0.24962  -10.9515
 3.00000    1.79     1.79   0.24968  -10.9515
 3.05000    1.79     1.79   0.24980  -10.9515
 3.10000    1.79     1.79   0.24984  -10.9514
 3.15000    1.79     1.79   0.24974  -10.9514
 3.20000    1.79     1.79   0.24996  -10.9516
 3.25000    1.79     1.79   0.24989  -10.9515
 3.30000    1.79     1.79   0.24985  -10.9514
 3.35000    1.79     1.79   0.24984  -10.9517
 3.40000    1.79     1.79   0.24983  -10.9514
 3.45000    1.79     1.79   0.24978  -10.9514
 3.50000    1.79     1.79   0.24991  -10.9514
 3.55000    1.79     1.79   0.25002  -10.9514
 3.60000    1.79     1.79   0.24979  -10.9515
 3.65000    1.79     1.79   0.25003  -10.9516
 3.70000    1.79     1.79   0.25002  -10.9513
 3.75000    1.79     1.79   0.24977  -10.9512
 3.80000    1.79     1.79   0.24996  -10.9513
 3.85000    1.79     1.79   0.24999  -10.9514
 3.90000    1.79     1.79   0.24990  -10.9516
 3.95000    1.79     1.79   0.24996  -10.9511
 4.00000    1.79     1.79   0.24981  -10.9511
 4.00000    1.79     1.79   0.25003  -10.9513
 3.95000    1.79     1.79   0.24991  -10.9513
 3.90000    1.79     1.79   0.24995  -10.9513
 3.85000    1.79     1.79   0.24979  -10.9512
 3.80000    1.79     1.79   0.24965  -10.9513
 3.75000    1.79     1.79   0.24973  -10.9515
 3.70000    1.79     1.79   0.24975  -10.9515
 3.65000    1.79     1.79   0.24949  -10.9516
 3.60000    1.79     1.79   0.24955  -10.9514
 3.55000    1.79     1.79   0.24947  -10.9514
 3.50000    1.79     1.79   0.24936  -10.9514
 3.45000    1.79     1.79   0.24957  -10.9513
 3.40000    1.79     1.79   0.24924  -10.9514
 3.35000    1.79     1.79   0.24929  -10.9514
 3.30000    1.79     1.79   0.24914  -10.9514
 3.25000    1.79     1.79   0.24912  -10.9516
 3.20000    1.79     1.79   0.24900  -10.9511
 3.15000    1.79     1.79   0.24888  -10.9513
 3.10000    1.79     1.79   0.24881  -10.9514
 3.05000    1.79     1.79   0.24873  -10.9511
 3.00000    1.79     1.79   0.24867  -10.9513
 2.95000    1.79     1.79   0.24856  -10.9513
 2.90000    1.79     1.79   0.24852  -10.9514
 2.85000    1.79     1.79   0.24845  -10.9515
 2.80000    1.79     1.79   0.24816  -10.9513
 2.75000    1.79     1.79   0.24826  -10.9514
 2.70000    1.79     1.79   0.24799  -10.9512
 2.65000    1.79     1.79   0.24782  -10.9512
 2.60000    1.79     1.79   0.24770  -10.9514
 2.55000    1.79     1.79   0.24763  -10.9511
 2.50000    1.79     1.79   0.24745  -10.9513
 2.45000    1.79     1.79   0.24725  -10.9512
 2.40000    1.79     1.79   0.24714  -10.9510
 2.35000    1.79     1.79   0.24701  -10.9511
 2.30000    1.79     1.79   0.24697  -10.9509
 2.25000    1.79     1.79   0.24678  -10.9506
 2.20000    1.79     1.79   0.24676  -10.9507
 2.15000    1.79     1.79   0.24645  -10.9507
 2.10000    1.79     1.79   0.24641  -10.9505
 2.05000    1.79     1.79   0.24638  -10.9503
 2.00000    1.79     1.79   0.24611  -10.9503
 1.95000    1.79     1.79   0.24612  -10.9493
 1.90000    1.79     1.79   0.24609  -10.9495
 1.85000    1.79     1.79   0.24593  -10.9490
 1.80000    1.79     1.79   0.24600  -10.9490
 1.75000    1.79     1.79   0.24596  -10.9489
 1.70000    1.79     1.79   0.24575  -10.9490
 1.65000    1.79     1.79   0.24597  -10.9486
 1.60000    1.79     1.79   0.24602  -10.9482
 1.55000    1.79     1.79   0.24608  -10.9482
 1.50000    1.79     1.79   0.24624  -10.9482
 1.45000    1.79     1.79   0.24642  -10.9478
 1.40000    1.79     1.79   0.24645  -10.9478
 1.35000    1.79     1.79   0.24640  -10.9476
 1.30000    1.79     1.79   0.24660  -10.9476
 1.25000    1.79     1.79   0.24665  -10.9475
 1.20000    1.79     1.79   0.24672  -10.9472
 1.15000    1.79     1.79   0.24685  -10.9473
 1.10000    1.79     1.79   0.24693  -10.9470
 1.05000    1.79     1.79   0.24706  -10.9465
 1.00000    1.79     1.79   0.24737  -10.9463
 0.95000    1.79     1.79   0.24738  -10.9464
 0.90000    1.79     1.79   0.24781  -10.9461
 0.85000    1.79     1.79   0.24807  -10.9461
 0.80000    1.79     1.79   0.24825  -10.9457
 0.75000    1.79     1.79   0.24811  -10.9459
 0.70000    1.79     1.79   0.24838  -10.9461
 0.65000    1.79     1.79   0.24887  -10.9459
 0.60000    1.79     1.79   0.24877  -10.9459
 0.55000    1.79     1.79   0.24899  -10.9461
 0.50000    1.79     1.79   0.24905  -10.9461
 0.45000    1.79     1.79   0.24892  -10.9460
 0.40000    1.79     1.79   0.24910  -10.9459
 0.35000    1.79     1.79   0.24925  -10.9459
 0.30000    1.79     1.79   0.24926  -10.9461
 0.25000    1.79     1.79   0.24935  -10.9462
 0.20000    1.79     1.79   0.24955  -10.9461
 0.15000    1.79     1.79   0.24962  -10.9459
 0.10000    1.79     1.79   0.24967  -10.9460
 0.05000    1.79     1.79   0.24975  -10.9460
 -0.00000    1.79     1.79   0.24984  -10.9459
