 Field[T] Tsmpl[K] Tcntr[K] Signal   Mirror[MM]
 0.00000    1.78     1.78   0.40011  -10.8715
 0.05000    1.78     1.78   0.40004  -10.8714
 0.10000    1.78     1.78   0.39984  -10.8715
 0.15000    1.78     1.78   0.39992  -10.8714
 0.20000    1.78     1.78   0.39964  -10.8713
 0.25000    1.78     1.78   0.39966  -10.8708
 0.30000    1.78     1.78   0.39971  -10.8710
 0.35000    1.78     1.78   0.39970  -10.8713
 0.40000    1.78     1.78   0.39987  -10.8713
 0.45000    1.78     1.78   0.39979  -10.8714
 0.50000    1.78     1.78   0.39963  -10.8711
 0.55000    1.78     1.78   0.39960  -10.8714
 0.60000    1.78     1.78   0.39963  -10.8714
 0.65000    1.78     1.78   0.39935  -10.8715
 0.70000    1.78     1.78   0.39938  -10.8715
 0.75000    1.78     1.78   0.39930  -10.8715
 0.80000    1.78     1.78   0.39919  -10.8714
 0.85000    1.78     1.78   0.39897  -10.8713
 0.90000    1.78     1.78   0.39909  -10.8714
 0.95000    1.78     1.78   0.39883  -10.8713
 1.00000    1.78     1.78   0.39871  -10.8713
 1.05000    1.78     1.78   0.39876  -10.8714
 1.10000    1.78     1.78   0.39825  -10.8713
 1.15000    1.78     1.78   0.39788  -10.8714
 1.20000    1.78     1.78   0.39736  -10.8711
 1.25000    1.78     1.78   0.39696  -10.8712
 1.30000    1.78     1.78   0.39654  -10.8714
 1.35000    1.78     1.78   0.39641  -10.8715
 1.40000    1.78     1.78   0.39608  -10.8715
 1.45000    1.78     1.78   0.39552  -10.8716
 1.50000    1.78     1.78   0.39548  -10.8715
 1.55000    1.78     1.78   0.39543  -10.8716
 1.60000    1.78     1.78   0.39529  -10.8718
 1.65000    1.78     1.78   0.39514  -10.8719
 1.70000    1.78     1.78   0.39511  -10.8718
 1.75000    1.78     1.78   0.39469  -10.8718
 1.80000    1.78     1.78   0.39477  -10.8719
 1.85000    1.78     1.78   0.39475  -10.8720
 1.90000    1.78     1.78   0.39445  -10.8722
 1.95000    1.78     1.78   0.39431  -10.8720
 2.00000    1.78     1.78   0.39409  -10.8720
 2.05000    1.78     1.78   0.39378  -10.8720
 2.10000    1.78     1.78   0.39356  -10.8719
 2.15000    1.78     1.78   0.39336  -10.8721
 2.20000    1.78     1.78   0.39324  -10.8722
 2.25000    1.78     1.78   0.39310  -10.8722
 2.30000    1.78     1.78   0.39294  -10.8725
 2.35000    1.78     1.78   0.39292  -10.8728
 2.40000    1.78     1.78   0.39279  -10.8726
 2.45000    1.78     1.78   0.39255  -10.8726
 2.50000    1.78     1.78   0.39272  -10.8728
 2.55000    1.78     1.78   0.39255  -10.8730
 2.60000    1.78     1.78   0.39265  -10.8731
 2.65000    1.78     1.78   0.39262  -10.8733
 2.70000    1.78     1.78   0.39254  -10.8732
 2.75000    1.78     1.78   0.39279  -10.8733
 2.80000    1.78     1.78   0.39286  -10.8734
 2.85000    1.78     1.78   0.39281  -10.8736
 2.90000    1.78     1.78   0.39284  -10.8737
 2.95000    1.78     1.78   0.39294  -10.8737
 3.00000    1.78     1.78   0.39304  -10.8736
 3.05000    1.78     1.78   0.39331  -10.8737
 3.10000    1.78     1.78   0.39354  -10.8736
 3.15000    1.78     1.78   0.39325  -10.8736
 3.20000    1.78     1.78   0.39345  -10.8738
 3.25000    1.78     1.78   0.39360  -10.8740
 3.30000    1.78     1.78   0.39358  -10.8739
 3.35000    1.78     1.78   0.39375  -10.8739
 3.40000    1.78     1.78   0.39407  -10.8739
 3.45000    1.78     1.78   0.39420  -10.8740
 3.50000    1.78     1.78   0.39393  -10.8741
 3.55000    1.78     1.78   0.39402  -10.8739
 3.60000    1.78     1.78   0.39418  -10.8739
 3.65000    1.78     1.78   0.39412  -10.8739
 3.70000    1.78     1.78   0.39423  -10.8740
 3.75000    1.78     1.78   0.39420  -10.8741
 3.80000    1.78     1.78   0.39403  -10.8739
 3.85000    1.78     1.78   0.39413  -10.8740
 3.90000    1.78     1.78   0.39439  -10.8741
 3.95000    1.78     1.78   0.39435  -10.8741
 4.00000    1.78     1.78   0.39440  -10.8739
 4.00000    1.78     1.78   0.39450  -10.8739
 3.95000    1.78     1.78   0.39439  -10.8738
 3.90000    1.78     1.78   0.39460  -10.8738
 3.85000    1.78     1.78   0.39470  -10.8739
 3.80000    1.78     1.78   0.39438  -10.8741
 3.75000    1.78     1.78   0.39441  -10.8739
 3.70000    1.78     1.78   0.39447  -10.8737
 3.65000    1.78     1.78   0.39429  -10.8736
 3.60000    1.78     1.78   0.39436  -10.8737
 3.55000    1.78     1.78   0.39413  -10.8735
 3.50000    1.78     1.78   0.39428  -10.8733
 3.45000    1.78     1.78   0.39421  -10.8734
 3.40000    1.78     1.78   0.39424  -10.8733
 3.35000    1.78     1.78   0.39420  -10.8735
 3.30000    1.78     1.78   0.39407  -10.8732
 3.25000    1.78     1.78   0.39433  -10.8734
 3.20000    1.78     1.78   0.39399  -10.8733
 3.15000    1.78     1.78   0.39375  -10.8732
 3.10000    1.78     1.78   0.39399  -10.8730
 3.05000    1.78     1.78   0.39382  -10.8729
 3.00000    1.78     1.78   0.39393  -10.8728
 2.95000    1.78     1.78   0.39403  -10.8729
 2.90000    1.78     1.78   0.39405  -10.8728
 2.85000    1.78     1.78   0.39392  -10.8728
 2.80000    1.78     1.78   0.39395  -10.8726
 2.75000    1.78     1.78   0.39413  -10.8725
 2.70000    1.78     1.78   0.39398  -10.8723
 2.65000    1.78     1.78   0.39393  -10.8723
 2.60000    1.78     1.78   0.39391  -10.8722
 2.55000    1.78     1.78   0.39401  -10.8722
 2.50000    1.78     1.78   0.39393  -10.8720
 2.45000    1.78     1.78   0.39395  -10.8718
 2.40000    1.78     1.78   0.39387  -10.8717
 2.35000    1.78     1.78   0.39381  -10.8713
 2.30000    1.78     1.78   0.39423  -10.8711
 2.25000    1.78     1.78   0.39431  -10.8708
 2.20000    1.78     1.78   0.39468  -10.8706
 2.15000    1.78     1.78   0.39489  -10.8709
 2.10000    1.78     1.78   0.39510  -10.8713
 2.05000    1.78     1.78   0.39532  -10.8706
 2.00000    1.78     1.78   0.39553  -10.8707
 1.95000    1.78     1.78   0.39573  -10.8707
 1.90000    1.78     1.78   0.39600  -10.8707
 1.85000    1.78     1.78   0.39619  -10.8705
 1.80000    1.78     1.78   0.39637  -10.8706
 1.75000    1.78     1.78   0.39633  -10.8704
 1.70000    1.78     1.78   0.39651  -10.8704
 1.65000    1.78     1.78   0.39655  -10.8705
 1.60000    1.78     1.78   0.39681  -10.8704
 1.55000    1.78     1.78   0.39682  -10.8702
 1.50000    1.78     1.78   0.39685  -10.8701
 1.45000    1.78     1.78   0.39700  -10.8699
 1.40000    1.78     1.78   0.39733  -10.8702
 1.35000    1.78     1.78   0.39754  -10.8701
 1.30000    1.78     1.78   0.39785  -10.8698
 1.25000    1.78     1.78   0.39813  -10.8696
 1.20000    1.78     1.78   0.39848  -10.8698
 1.15000    1.78     1.78   0.39901  -10.8696
 1.10000    1.78     1.78   0.39929  -10.8698
 1.05000    1.78     1.78   0.39943  -10.8698
 1.00000    1.78     1.78   0.39961  -10.8700
 0.95000    1.78     1.78   0.39956  -10.8701
 0.90000    1.78     1.78   0.39970  -10.8701
 0.85000    1.78     1.78   0.39980  -10.8701
 0.80000    1.78     1.78   0.39975  -10.8700
 0.75000    1.78     1.78   0.39974  -10.8702
 0.70000    1.78     1.78   0.40005  -10.8702
 0.65000    1.78     1.78   0.39991  -10.8703
 0.60000    1.78     1.78   0.39980  -10.8702
 0.55000    1.78     1.78   0.39998  -10.8702
 0.50000    1.78     1.78   0.39996  -10.8703
 0.45000    1.78     1.78   0.39982  -10.8703
 0.40000    1.78     1.78   0.39987  -10.8702
 0.35000    1.78     1.78   0.40012  -10.8703
 0.30000    1.78     1.78   0.40011  -10.8701
 0.25000    1.78     1.78   0.40004  -10.8701
 0.20000    1.78     1.78   0.40016  -10.8704
 0.15000    1.78     1.78   0.39986  -10.8702
 0.10000    1.78     1.78   0.40017  -10.8701
 0.05000    1.78     1.78   0.40005  -10.8704
 -0.00000    1.78     1.78   0.40018  -10.8702
