 Field[T] Tsmpl[K] Tcntr[K] Signal
 0.00000    1.84     1.86   3.79130
 0.05000    1.84     1.86   3.79830
 0.10000    1.84     1.86   3.79940
 0.15000    1.84     1.86   3.79800
 0.20000    1.84     1.86   3.79620
 0.25000    1.84     1.86   3.79610
 0.30000    1.84     1.86   3.79390
 0.35000    1.84     1.86   3.79340
 0.40000    1.84     1.86   3.79380
 0.45000    1.84     1.86   3.79600
 0.50000    1.84     1.86   3.79740
 0.55000    1.84     1.86   3.79400
 0.60000    1.84     1.86   3.79710
 0.65000    1.84     1.86   3.79720
 0.70000    1.83     1.86   3.79240
 0.75000    1.83     1.86   3.79690
 0.80000    1.83     1.86   3.79670
 0.85000    1.83     1.86   3.80030
 0.90000    1.83     1.86   3.80170
 0.95000    1.83     1.86   3.79940
 1.00000    1.84     1.86   3.80250
 1.05000    1.84     1.86   3.79770
 1.10000    1.84     1.86   3.80230
 1.15000    1.84     1.86   3.81000
 1.20000    1.84     1.86   3.80990
 1.25000    1.84     1.86   3.81340
 1.30000    1.84     1.86   3.81930
 1.35000    1.84     1.86   3.81370
 1.40000    1.84     1.86   3.80820
 1.45000    1.84     1.86   3.80450
 1.50000    1.84     1.86   3.79280
 1.55000    1.84     1.86   3.78350
 1.60000    1.84     1.87   3.78120
 1.65000    1.84     1.87   3.77850
 1.70000    1.84     1.87   3.78290
 1.75000    1.84     1.87   3.78590
 1.80000    1.84     1.87   3.78590
 1.85000    1.84     1.87   3.78480
 1.90000    1.84     1.87   3.77860
 1.95000    1.85     1.87   3.77370
 2.00000    1.85     1.87   3.77540
 2.05000    1.85     1.87   3.77350
 2.10000    1.85     1.87   3.77250
 2.15000    1.85     1.87   3.76480
 2.20000    1.85     1.87   3.76930
 2.25000    1.85     1.87   3.77200
 2.30000    1.85     1.87   3.77620
 2.35000    1.85     1.87   3.77210
 2.40000    1.85     1.87   3.77200
 2.45000    1.85     1.87   3.77440
 2.50000    1.85     1.87   3.77140
 2.55000    1.85     1.87   3.76580
 2.60000    1.85     1.87   3.76630
 2.65000    1.85     1.87   3.75750
 2.70000    1.85     1.88   3.75040
 2.75000    1.85     1.88   3.75150
 2.80000    1.85     1.88   3.75590
 2.85000    1.86     1.88   3.76040
 2.90000    1.86     1.88   3.77110
 2.95000    1.86     1.88   3.78500
 3.00000    1.86     1.88   3.79480
 3.05000    1.86     1.88   3.80320
 3.10000    1.86     1.88   3.80670
 3.15000    1.86     1.88   3.81190
 3.20000    1.86     1.88   3.81700
 3.25000    1.86     1.88   3.81080
 3.30000    1.86     1.88   3.81060
 3.35000    1.86     1.88   3.80940
 3.40000    1.86     1.88   3.81100
 3.45000    1.86     1.88   3.80450
 3.50000    1.86     1.88   3.79880
 3.55000    1.86     1.88   3.80220
 3.60000    1.86     1.88   3.79820
 3.65000    1.86     1.88   3.79780
 3.70000    1.86     1.88   3.79380
 3.75000    1.86     1.88   3.79600
 3.80000    1.86     1.88   3.79060
 3.85000    1.86     1.89   3.79220
 3.90000    1.86     1.89   3.79270
 3.95000    1.87     1.89   3.79020
 4.00000    1.87     1.89   3.78840
 4.05000    1.87     1.89   3.79050
 4.10000    1.87     1.89   3.78410
 4.15000    1.87     1.89   3.78620
 4.20000    1.87     1.89   3.77960
 4.25000    1.87     1.89   3.78260
 4.30000    1.87     1.89   3.78840
 4.35000    1.87     1.89   3.78020
 4.40000    1.87     1.89   3.78340
 4.45000    1.87     1.89   3.78140
 4.50000    1.87     1.89   3.78420
 4.55000    1.87     1.89   3.78290
 4.60000    1.87     1.89   3.77790
 4.65000    1.87     1.89   3.77940
 4.70000    1.87     1.89   3.78010
 4.75000    1.87     1.89   3.77470
 4.80000    1.87     1.89   3.77350
 4.85000    1.87     1.89   3.77110
 4.90000    1.87     1.90   3.77610
 4.95000    1.87     1.90   3.77470
 5.00000    1.87     1.90   3.77410
 5.05000    1.87     1.90   3.76760
 5.10000    1.87     1.90   3.77050
 5.15000    1.87     1.90   3.76870
 5.20000    1.87     1.90   3.76940
 5.25000    1.87     1.90   3.76670
 5.30000    1.87     1.90   3.76380
 5.35000    1.88     1.90   3.76310
 5.40000    1.88     1.90   3.76050
 5.45000    1.88     1.90   3.76350
 5.50000    1.88     1.90   3.76100
 5.55000    1.88     1.90   3.75390
 5.60000    1.88     1.90   3.75570
 5.65000    1.88     1.90   3.75490
 5.70000    1.88     1.90   3.74980
 5.75000    1.88     1.90   3.75250
 5.80000    1.88     1.90   3.74830
 5.85000    1.88     1.90   3.74920
 5.90000    1.88     1.90   3.74720
 5.95000    1.88     1.90   3.74700
 6.00000    1.88     1.91   3.74360
 6.05000    1.88     1.91   3.74240
 6.10000    1.88     1.91   3.74180
 6.15000    1.88     1.91   3.74120
 6.20000    1.88     1.91   3.74160
 6.25000    1.88     1.91   3.73750
 6.30000    1.88     1.91   3.74120
 6.35000    1.88     1.91   3.73950
 6.40000    1.88     1.91   3.73870
 6.45000    1.88     1.91   3.73700
 6.50000    1.88     1.91   3.73510
 6.55000    1.88     1.91   3.73310
 6.60000    1.88     1.91   3.73240
 6.65000    1.88     1.91   3.73150
 6.70000    1.88     1.91   3.72990
 6.75000    1.88     1.91   3.72930
 6.80000    1.88     1.91   3.72870
 6.85000    1.88     1.91   3.72360
 6.90000    1.88     1.91   3.72780
 6.95000    1.88     1.91   3.72590
 7.00000    1.89     1.92   3.72510
 7.00000    1.89     1.92   3.72050
 6.95000    1.89     1.92   3.72220
 6.90000    1.89     1.92   3.72830
 6.85000    1.89     1.92   3.72660
 6.80000    1.89     1.92   3.72660
 6.75000    1.89     1.92   3.73070
 6.70000    1.89     1.92   3.73310
 6.65000    1.89     1.92   3.73400
 6.60000    1.89     1.92   3.73880
 6.55000    1.89     1.92   3.73900
 6.50000    1.89     1.92   3.73790
 6.45000    1.89     1.92   3.73880
 6.40000    1.89     1.92   3.74270
 6.35000    1.89     1.92   3.74380
 6.30000    1.89     1.92   3.74200
 6.25000    1.89     1.92   3.74820
 6.20000    1.89     1.92   3.74720
 6.15000    1.89     1.91   3.74700
 6.10000    1.89     1.91   3.74720
 6.05000    1.89     1.91   3.75090
 6.00000    1.89     1.91   3.75200
 5.95000    1.89     1.91   3.75640
 5.90000    1.88     1.91   3.75480
 5.85000    1.88     1.91   3.75710
 5.80000    1.88     1.91   3.75830
 5.75000    1.88     1.91   3.76470
 5.70000    1.88     1.91   3.76680
 5.65000    1.88     1.91   3.76630
 5.60000    1.88     1.91   3.76550
 5.55000    1.88     1.91   3.77100
 5.50000    1.88     1.91   3.77460
 5.45000    1.88     1.91   3.77200
 5.40000    1.88     1.91   3.77840
 5.35000    1.88     1.91   3.77760
 5.30000    1.88     1.91   3.77880
 5.25000    1.88     1.91   3.78100
 5.20000    1.88     1.91   3.78290
 5.15000    1.88     1.91   3.79270
 5.10000    1.88     1.91   3.79320
 5.05000    1.88     1.91   3.79730
 5.00000    1.88     1.91   3.80080
 4.95000    1.88     1.91   3.79290
 4.90000    1.88     1.91   3.79380
 4.85000    1.88     1.91   3.79680
 4.80000    1.88     1.91   3.79680
 4.75000    1.88     1.91   3.80090
 4.70000    1.88     1.91   3.80290
 4.65000    1.88     1.91   3.80590
 4.60000    1.88     1.90   3.80560
 4.55000    1.88     1.90   3.80780
 4.50000    1.88     1.90   3.80500
 4.45000    1.88     1.90   3.81220
 4.40000    1.88     1.90   3.80960
 4.35000    1.88     1.90   3.81220
 4.30000    1.88     1.90   3.81390
 4.25000    1.88     1.90   3.81860
 4.20000    1.88     1.90   3.81770
 4.15000    1.88     1.90   3.81910
 4.10000    1.88     1.90   3.81890
 4.05000    1.88     1.90   3.82570
 4.00000    1.88     1.90   3.82590
 3.95000    1.88     1.90   3.82920
 3.90000    1.88     1.90   3.83000
 3.85000    1.88     1.90   3.83560
 3.80000    1.88     1.90   3.83540
 3.75000    1.88     1.90   3.83660
 3.70000    1.88     1.90   3.83880
 3.65000    1.88     1.90   3.84070
 3.60000    1.88     1.90   3.84420
 3.55000    1.88     1.89   3.84360
 3.50000    1.88     1.89   3.84540
 3.45000    1.88     1.89   3.84770
 3.40000    1.88     1.89   3.85740
 3.35000    1.87     1.89   3.85670
 3.30000    1.87     1.89   3.85210
 3.25000    1.87     1.89   3.86230
 3.20000    1.87     1.89   3.86450
 3.15000    1.87     1.89   3.86320
 3.10000    1.87     1.89   3.86210
 3.05000    1.87     1.89   3.85520
 3.00000    1.87     1.89   3.84700
 2.95000    1.87     1.89   3.83220
 2.90000    1.87     1.89   3.82110
 2.85000    1.87     1.89   3.81070
 2.80000    1.87     1.89   3.80300
 2.75000    1.87     1.89   3.80030
 2.70000    1.87     1.89   3.80230
 2.65000    1.87     1.89   3.80760
 2.60000    1.87     1.89   3.81200
 2.55000    1.87     1.89   3.81650
 2.50000    1.87     1.89   3.81730
 2.45000    1.87     1.89   3.81800
 2.40000    1.87     1.89   3.82210
 2.35000    1.87     1.89   3.82250
 2.30000    1.87     1.89   3.82200
 2.25000    1.87     1.89   3.82250
 2.20000    1.87     1.89   3.82110
 2.15000    1.87     1.88   3.81730
 2.10000    1.86     1.88   3.82080
 2.05000    1.86     1.88   3.82750
 2.00000    1.86     1.88   3.82190
 1.95000    1.86     1.88   3.82950
 1.90000    1.86     1.88   3.82510
 1.85000    1.86     1.88   3.83390
 1.80000    1.86     1.88   3.83500
 1.75000    1.86     1.88   3.83400
 1.70000    1.86     1.88   3.83560
 1.65000    1.86     1.88   3.82950
 1.60000    1.86     1.88   3.83200
 1.55000    1.86     1.88   3.83690
 1.50000    1.86     1.88   3.84030
 1.45000    1.86     1.88   3.84710
 1.40000    1.86     1.88   3.85420
 1.35000    1.86     1.88   3.85300
 1.30000    1.86     1.88   3.85860
 1.25000    1.86     1.88   3.85230
 1.20000    1.85     1.88   3.84890
 1.15000    1.85     1.88   3.84370
 1.10000    1.85     1.88   3.84760
 1.05000    1.85     1.88   3.83800
 1.00000    1.85     1.88   3.83530
 0.95000    1.85     1.88   3.83100
 0.90000    1.85     1.88   3.83050
 0.85000    1.85     1.88   3.82940
 0.80000    1.85     1.88   3.82290
 0.75000    1.85     1.88   3.81770
 0.70000    1.85     1.88   3.82020
 0.65000    1.85     1.88   3.81510
 0.60000    1.85     1.88   3.81240
 0.55000    1.85     1.88   3.81350
 0.50000    1.85     1.88   3.80680
 0.45000    1.85     1.88   3.80760
 0.40000    1.85     1.88   3.80610
 0.35000    1.85     1.88   3.80380
 0.30000    1.85     1.88   3.80370
 0.25000    1.85     1.88   3.79970
 0.20000    1.85     1.88   3.80270
 0.15000    1.85     1.88   3.80050
 0.10000    1.85     1.88   3.80160
 0.05000    1.85     1.88   3.80090
-0.00000    1.85     1.88   3.79690
