 Field[T] Tsmpl[K] Tcntr[K] Signal
 0.00000    1.83     1.86   7.60080
 0.05000    1.83     1.86   7.58740
 0.10000    1.83     1.86   7.58230
 0.15000    1.83     1.86   7.58370
 0.20000    1.83     1.86   7.56540
 0.25000    1.83     1.86   7.55840
 0.30000    1.83     1.86   7.55440
 0.35000    1.83     1.86   7.54480
 0.40000    1.83     1.86   7.54090
 0.45000    1.83     1.86   7.53200
 0.50000    1.83     1.86   7.53580
 0.55000    1.83     1.86   7.52220
 0.60000    1.83     1.85   7.52570
 0.65000    1.83     1.85   7.50050
 0.70000    1.83     1.85   7.49690
 0.75000    1.83     1.85   7.49620
 0.80000    1.83     1.85   7.48920
 0.85000    1.83     1.85   7.48220
 0.90000    1.83     1.85   7.47260
 0.95000    1.83     1.85   7.46820
 1.00000    1.83     1.85   7.46670
 1.05000    1.83     1.85   7.45160
 1.10000    1.83     1.85   7.45880
 1.15000    1.83     1.85   7.45470
 1.20000    1.83     1.85   7.45740
 1.25000    1.83     1.85   7.45050
 1.30000    1.83     1.85   7.44780
 1.35000    1.83     1.85   7.45000
 1.40000    1.83     1.85   7.43810
 1.45000    1.83     1.85   7.41860
 1.50000    1.83     1.85   7.40700
 1.55000    1.83     1.85   7.39950
 1.60000    1.83     1.85   7.39600
 1.65000    1.83     1.85   7.38760
 1.70000    1.83     1.85   7.38790
 1.75000    1.83     1.85   7.38750
 1.80000    1.83     1.85   7.39310
 1.85000    1.83     1.86   7.40130
 1.90000    1.83     1.86   7.39670
 1.95000    1.83     1.86   7.39170
 2.00000    1.83     1.86   7.39370
 2.05000    1.84     1.86   7.37860
 2.10000    1.84     1.86   7.36960
 2.15000    1.84     1.86   7.35390
 2.20000    1.84     1.86   7.35350
 2.25000    1.84     1.86   7.35040
 2.30000    1.84     1.86   7.36050
 2.35000    1.84     1.86   7.35210
 2.40000    1.84     1.86   7.35580
 2.45000    1.84     1.86   7.35070
 2.50000    1.84     1.86   7.33980
 2.55000    1.84     1.86   7.34970
 2.60000    1.84     1.86   7.34180
 2.65000    1.84     1.86   7.33810
 2.70000    1.84     1.86   7.33130
 2.75000    1.84     1.86   7.33990
 2.80000    1.84     1.86   7.34070
 2.85000    1.84     1.86   7.35300
 2.90000    1.84     1.86   7.36890
 2.95000    1.84     1.87   7.38160
 3.00000    1.85     1.87   7.38820
 3.05000    1.85     1.87   7.40140
 3.10000    1.85     1.87   7.40050
 3.15000    1.85     1.87   7.40860
 3.20000    1.85     1.87   7.41410
 3.25000    1.85     1.87   7.41080
 3.30000    1.85     1.87   7.41200
 3.35000    1.85     1.87   7.41220
 3.40000    1.85     1.87   7.41020
 3.45000    1.85     1.87   7.39860
 3.50000    1.85     1.87   7.40100
 3.55000    1.85     1.87   7.39150
 3.60000    1.85     1.87   7.39260
 3.65000    1.85     1.87   7.39650
 3.70000    1.85     1.87   7.38990
 3.75000    1.85     1.87   7.39190
 3.80000    1.85     1.88   7.38760
 3.85000    1.85     1.88   7.38520
 3.90000    1.85     1.88   7.37920
 3.95000    1.86     1.88   7.37680
 4.00000    1.86     1.88   7.37940
 4.05000    1.86     1.88   7.37910
 4.10000    1.86     1.88   7.38300
 4.15000    1.86     1.88   7.38170
 4.20000    1.86     1.88   7.38310
 4.25000    1.86     1.88   7.37920
 4.30000    1.86     1.88   7.36840
 4.35000    1.86     1.88   7.37090
 4.40000    1.86     1.88   7.37270
 4.45000    1.86     1.88   7.36690
 4.50000    1.86     1.88   7.36930
 4.55000    1.86     1.88   7.37250
 4.60000    1.86     1.88   7.37630
 4.65000    1.86     1.88   7.36820
 4.70000    1.86     1.88   7.36710
 4.75000    1.86     1.88   7.36050
 4.80000    1.86     1.88   7.35800
 4.85000    1.86     1.88   7.35990
 4.90000    1.86     1.89   7.36260
 4.95000    1.86     1.89   7.35960
 5.00000    1.86     1.89   7.35060
 5.05000    1.87     1.89   7.34580
 5.10000    1.87     1.89   7.34990
 5.15000    1.87     1.89   7.34870
 5.20000    1.87     1.89   7.35160
 5.25000    1.87     1.89   7.34230
 5.30000    1.87     1.89   7.34350
 5.35000    1.87     1.89   7.35570
 5.40000    1.87     1.89   7.34480
 5.45000    1.87     1.89   7.34080
 5.50000    1.87     1.89   7.34580
 5.55000    1.87     1.89   7.33500
 5.60000    1.87     1.89   7.34020
 5.65000    1.87     1.89   7.33550
 5.70000    1.87     1.90   7.32660
 5.75000    1.87     1.90   7.32800
 5.80000    1.87     1.90   7.32850
 5.85000    1.87     1.90   7.33020
 5.90000    1.87     1.90   7.32210
 5.95000    1.87     1.90   7.32700
 6.00000    1.87     1.90   7.32180
 6.05000    1.87     1.90   7.31660
 6.10000    1.87     1.90   7.32360
 6.15000    1.87     1.90   7.31400
 6.20000    1.87     1.90   7.31200
 6.25000    1.87     1.90   7.31130
 6.30000    1.87     1.90   7.31380
 6.35000    1.88     1.90   7.31320
 6.40000    1.88     1.90   7.30320
 6.45000    1.88     1.90   7.31340
 6.50000    1.88     1.90   7.29820
 6.55000    1.88     1.91   7.29620
 6.60000    1.88     1.91   7.29500
 6.65000    1.88     1.91   7.30140
 6.70000    1.88     1.91   7.29290
 6.75000    1.88     1.91   7.28790
 6.80000    1.88     1.91   7.29280
 6.85000    1.88     1.91   7.28740
 6.90000    1.88     1.91   7.28480
 6.95000    1.88     1.91   7.28760
 7.00000    1.88     1.91   7.29160
 7.00000    1.88     1.91   7.30240
 6.95000    1.88     1.91   7.30290
 6.90000    1.88     1.91   7.30170
 6.85000    1.88     1.91   7.30540
 6.80000    1.88     1.91   7.30700
 6.75000    1.88     1.91   7.31420
 6.70000    1.88     1.91   7.31810
 6.65000    1.88     1.91   7.32350
 6.60000    1.88     1.91   7.31600
 6.55000    1.88     1.91   7.31800
 6.50000    1.88     1.91   7.32060
 6.45000    1.88     1.91   7.32380
 6.40000    1.88     1.91   7.32060
 6.35000    1.88     1.91   7.33180
 6.30000    1.88     1.91   7.33790
 6.25000    1.88     1.91   7.33960
 6.20000    1.88     1.91   7.34710
 6.15000    1.88     1.91   7.34510
 6.10000    1.88     1.91   7.35280
 6.05000    1.88     1.91   7.34710
 6.00000    1.88     1.91   7.34940
 5.95000    1.88     1.91   7.35940
 5.90000    1.88     1.91   7.36030
 5.85000    1.88     1.91   7.35710
 5.80000    1.88     1.90   7.36170
 5.75000    1.88     1.90   7.36250
 5.70000    1.88     1.90   7.36390
 5.65000    1.88     1.90   7.36790
 5.60000    1.88     1.90   7.37850
 5.55000    1.88     1.90   7.38080
 5.50000    1.88     1.90   7.38410
 5.45000    1.88     1.90   7.39410
 5.40000    1.88     1.90   7.38830
 5.35000    1.88     1.90   7.38840
 5.30000    1.88     1.90   7.39560
 5.25000    1.88     1.90   7.39910
 5.20000    1.88     1.90   7.40020
 5.15000    1.88     1.90   7.40400
 5.10000    1.88     1.90   7.40300
 5.05000    1.88     1.90   7.40570
 5.00000    1.88     1.90   7.41720
 4.95000    1.88     1.90   7.41580
 4.90000    1.88     1.90   7.42610
 4.85000    1.87     1.90   7.42640
 4.80000    1.87     1.90   7.42340
 4.75000    1.87     1.90   7.42290
 4.70000    1.87     1.90   7.42640
 4.65000    1.87     1.90   7.43180
 4.60000    1.87     1.89   7.43220
 4.55000    1.87     1.89   7.43670
 4.50000    1.87     1.89   7.44370
 4.45000    1.87     1.89   7.44570
 4.40000    1.87     1.89   7.45060
 4.35000    1.87     1.89   7.44770
 4.30000    1.87     1.89   7.45590
 4.25000    1.87     1.89   7.45860
 4.20000    1.87     1.89   7.46440
 4.15000    1.87     1.89   7.46400
 4.10000    1.87     1.89   7.46470
 4.05000    1.87     1.89   7.46900
 4.00000    1.87     1.89   7.46630
 3.95000    1.87     1.89   7.47310
 3.90000    1.87     1.89   7.47510
 3.85000    1.87     1.89   7.47300
 3.80000    1.87     1.89   7.48130
 3.75000    1.87     1.89   7.48950
 3.70000    1.87     1.89   7.48560
 3.65000    1.87     1.89   7.48640
 3.60000    1.87     1.89   7.49580
 3.55000    1.87     1.89   7.49250
 3.50000    1.87     1.89   7.50410
 3.45000    1.87     1.89   7.50120
 3.40000    1.87     1.89   7.50590
 3.35000    1.87     1.88   7.50610
 3.30000    1.87     1.88   7.51080
 3.25000    1.87     1.88   7.50870
 3.20000    1.87     1.88   7.51540
 3.15000    1.87     1.88   7.51150
 3.10000    1.86     1.88   7.50700
 3.05000    1.86     1.88   7.50170
 3.00000    1.86     1.88   7.49480
 2.95000    1.86     1.88   7.48080
 2.90000    1.86     1.88   7.46560
 2.85000    1.86     1.88   7.45910
 2.80000    1.86     1.88   7.43730
 2.75000    1.86     1.88   7.46070
 2.70000    1.86     1.88   7.44390
 2.65000    1.86     1.88   7.44950
 2.60000    1.86     1.88   7.44580
 2.55000    1.86     1.88   7.45350
 2.50000    1.86     1.88   7.44400
 2.45000    1.86     1.88   7.45050
 2.40000    1.86     1.88   7.45960
 2.35000    1.86     1.88   7.45470
 2.30000    1.86     1.88   7.45270
 2.25000    1.86     1.88   7.45140
 2.20000    1.86     1.88   7.44420
 2.15000    1.86     1.88   7.45800
 2.10000    1.85     1.88   7.47130
 2.05000    1.85     1.88   7.47960
 2.00000    1.85     1.88   7.48320
 1.95000    1.85     1.87   7.48050
 1.90000    1.85     1.87   7.49980
 1.85000    1.85     1.87   7.48860
 1.80000    1.85     1.87   7.49540
 1.75000    1.85     1.87   7.47790
 1.70000    1.85     1.87   7.47030
 1.65000    1.85     1.87   7.47000
 1.60000    1.85     1.87   7.46260
 1.55000    1.85     1.87   7.46360
 1.50000    1.85     1.87   7.47190
 1.45000    1.85     1.87   7.48020
 1.40000    1.85     1.87   7.49400
 1.35000    1.85     1.87   7.49640
 1.30000    1.85     1.87   7.50060
 1.25000    1.85     1.87   7.50400
 1.20000    1.84     1.87   7.49040
 1.15000    1.84     1.87   7.48510
 1.10000    1.84     1.87   7.47760
 1.05000    1.84     1.87   7.47840
 1.00000    1.84     1.87   7.47760
 0.95000    1.84     1.87   7.47370
 0.90000    1.84     1.87   7.47650
 0.85000    1.84     1.87   7.47760
 0.80000    1.84     1.87   7.47570
 0.75000    1.84     1.87   7.47670
 0.70000    1.84     1.87   7.47670
 0.65000    1.84     1.87   7.47730
 0.60000    1.84     1.87   7.47120
 0.55000    1.84     1.87   7.46970
 0.50000    1.84     1.86   7.46810
 0.45000    1.84     1.86   7.46900
 0.40000    1.84     1.86   7.46560
 0.35000    1.84     1.86   7.46680
 0.30000    1.84     1.86   7.46100
 0.25000    1.84     1.86   7.46410
 0.20000    1.83     1.86   7.45660
 0.15000    1.83     1.86   7.45890
 0.10000    1.83     1.86   7.46000
 0.05000    1.83     1.86   7.45400
-0.00000    1.83     1.86   7.45860
