 Field[T] Tsmpl[K] Tcntr[K] Signal
 0.00000    1.85     1.87   6.33730
 0.05000    1.85     1.87   6.38020
 0.10000    1.85     1.87   6.41200
 0.15000    1.85     1.87   6.45340
 0.20000    1.85     1.87   6.49200
 0.25000    1.85     1.87   6.51990
 0.30000    1.85     1.87   6.54130
 0.35000    1.85     1.87   6.56920
 0.40000    1.85     1.87   6.59960
 0.45000    1.85     1.87   6.63110
 0.50000    1.85     1.87   6.66220
 0.55000    1.84     1.87   6.68850
 0.60000    1.84     1.87   6.71570
 0.65000    1.84     1.87   6.73020
 0.70000    1.84     1.87   6.75040
 0.75000    1.84     1.87   6.77150
 0.80000    1.84     1.87   6.78120
 0.85000    1.84     1.87   6.79720
 0.90000    1.84     1.87   6.81850
 0.95000    1.84     1.87   6.83420
 1.00000    1.85     1.87   6.84470
 1.05000    1.85     1.87   6.85520
 1.10000    1.85     1.87   6.86970
 1.15000    1.85     1.87   6.87790
 1.20000    1.85     1.87   6.89070
 1.25000    1.85     1.87   6.89970
 1.30000    1.85     1.87   6.91130
 1.35000    1.85     1.87   6.91820
 1.40000    1.85     1.87   6.92990
 1.45000    1.85     1.87   6.93760
 1.50000    1.85     1.87   6.95510
 1.55000    1.85     1.87   6.95630
 1.60000    1.85     1.87   6.96880
 1.65000    1.85     1.87   6.97220
 1.70000    1.85     1.87   6.97130
 1.75000    1.85     1.87   6.97780
 1.80000    1.85     1.87   6.98200
 1.85000    1.85     1.87   6.98670
 1.90000    1.85     1.87   6.99390
 1.95000    1.85     1.87   6.99280
 2.00000    1.85     1.87   6.99590
 2.05000    1.85     1.87   6.99900
 2.10000    1.85     1.87   6.99300
 2.15000    1.86     1.87   7.00770
 2.20000    1.86     1.87   7.01190
 2.25000    1.86     1.87   7.01310
 2.30000    1.86     1.87   7.02050
 2.35000    1.86     1.87   7.01970
 2.40000    1.86     1.87   7.02030
 2.45000    1.86     1.88   7.01500
 2.50000    1.86     1.88   7.01480
 2.55000    1.86     1.88   7.01910
 2.60000    1.86     1.88   7.02290
 2.65000    1.86     1.88   7.02450
 2.70000    1.86     1.88   7.03090
 2.75000    1.86     1.88   7.04110
 2.80000    1.86     1.88   7.05330
 2.85000    1.86     1.88   7.05080
 2.90000    1.86     1.88   7.04050
 2.95000    1.86     1.88   7.03610
 3.00000    1.86     1.88   7.04050
 3.05000    1.87     1.88   7.04080
 3.10000    1.87     1.88   7.04590
 3.15000    1.87     1.88   7.04470
 3.20000    1.87     1.88   7.05180
 3.25000    1.87     1.88   7.04910
 3.30000    1.87     1.88   7.04510
 3.35000    1.87     1.88   7.05260
 3.40000    1.87     1.89   7.05370
 3.45000    1.87     1.89   7.06210
 3.50000    1.87     1.89   7.06580
 3.55000    1.87     1.89   7.06200
 3.60000    1.87     1.89   7.05360
 3.65000    1.87     1.89   7.05610
 3.70000    1.87     1.89   7.05220
 3.75000    1.87     1.89   7.05330
 3.80000    1.87     1.89   7.05020
 3.85000    1.87     1.89   7.04910
 3.90000    1.87     1.89   7.04870
 3.95000    1.87     1.89   7.04230
 4.00000    1.87     1.89   7.04900
 4.05000    1.88     1.89   7.04640
 4.10000    1.88     1.89   7.06250
 4.15000    1.88     1.89   7.05610
 4.20000    1.88     1.89   7.05580
 4.25000    1.88     1.90   7.05780
 4.30000    1.88     1.90   7.05760
 4.35000    1.88     1.90   7.05740
 4.40000    1.88     1.90   7.06360
 4.45000    1.88     1.90   7.05700
 4.50000    1.88     1.90   7.05660
 4.55000    1.88     1.90   7.06320
 4.60000    1.88     1.90   7.06590
 4.65000    1.88     1.90   7.06140
 4.70000    1.88     1.90   7.06040
 4.75000    1.88     1.90   7.05660
 4.80000    1.88     1.90   7.06060
 4.85000    1.88     1.90   7.06280
 4.90000    1.88     1.90   7.06030
 4.95000    1.88     1.90   7.05250
 5.00000    1.88     1.90   7.05330
 5.05000    1.88     1.90   7.05620
 5.10000    1.88     1.90   7.06080
 5.15000    1.88     1.90   7.06420
 5.20000    1.88     1.90   7.06000
 5.25000    1.88     1.90   7.05490
 5.30000    1.88     1.90   7.05740
 5.35000    1.88     1.90   7.05440
 5.40000    1.88     1.90   7.05410
 5.45000    1.88     1.91   7.05870
 5.50000    1.88     1.91   7.06220
 5.55000    1.88     1.91   7.06170
 5.60000    1.88     1.91   7.05680
 5.65000    1.88     1.91   7.05030
 5.70000    1.88     1.91   7.05240
 5.75000    1.89     1.91   7.04370
 5.80000    1.89     1.91   7.04460
 5.85000    1.89     1.91   7.04360
 5.90000    1.89     1.91   7.04550
 5.95000    1.89     1.91   7.04670
 6.00000    1.89     1.91   7.04550
 6.05000    1.89     1.91   7.04520
 6.10000    1.89     1.91   7.04060
 6.15000    1.89     1.91   7.03410
 6.20000    1.89     1.91   7.03910
 6.25000    1.89     1.91   7.03360
 6.30000    1.89     1.91   7.03710
 6.35000    1.89     1.91   7.02470
 6.40000    1.89     1.91   7.02560
 6.45000    1.89     1.91   7.02400
 6.50000    1.89     1.91   7.01880
 6.55000    1.89     1.91   7.02380
 6.60000    1.89     1.91   7.02950
 6.65000    1.89     1.91   7.03470
 6.70000    1.89     1.92   7.03480
 6.75000    1.89     1.92   7.04020
 6.80000    1.89     1.92   7.03200
 6.85000    1.89     1.92   7.01620
 6.90000    1.89     1.92   7.00790
 6.95000    1.89     1.92   7.01220
 7.00000    1.89     1.92   7.00160
