 Field[T] Tsmpl[K] Tcntr[K] Signal   Mirror[MM]
 0.00000    1.86     1.86   0.72433  -9.0345
 0.05000    1.86     1.86   0.72442  -9.0339
 0.10000    1.86     1.86   0.72061  -9.0321
 0.15000    1.86     1.86   0.72268  -9.0318
 0.20000    1.86     1.86   0.72070  -9.0323
 0.25000    1.86     1.86   0.72253  -9.0337
 0.30000    1.86     1.86   0.71932  -9.0342
 0.35000    1.86     1.86   0.71716  -9.0340
 0.40000    1.86     1.86   0.71524  -9.0346
 0.45000    1.86     1.86   0.71221  -9.0349
 0.50000    1.86     1.86   0.70918  -9.0351
 0.55000    1.86     1.86   0.70762  -9.0365
 0.60000    1.86     1.86   0.70261  -9.0373
 0.65000    1.86     1.86   0.70012  -9.0375
 0.70000    1.86     1.86   0.69877  -9.0390
 0.75000    1.86     1.86   0.69850  -9.0403
 0.80000    1.86     1.86   0.69931  -9.0412
 0.85000    1.86     1.86   0.69982  -9.0423
 0.90000    1.86     1.86   0.69949  -9.0429
 0.95000    1.86     1.86   0.70138  -9.0445
 1.00000    1.86     1.86   0.70363  -9.0452
 1.05000    1.86     1.86   0.70417  -9.0454
 1.10000    1.86     1.86   0.70555  -9.0456
 1.15000    1.86     1.86   0.70672  -9.0463
 1.20000    1.86     1.86   0.70939  -9.0465
 1.25000    1.86     1.86   0.71131  -9.0468
 1.30000    1.86     1.86   0.71326  -9.0473
 1.35000    1.86     1.86   0.71389  -9.0469
 1.40000    1.86     1.86   0.71494  -9.0468
 1.45000    1.86     1.86   0.71818  -9.0470
 1.50000    1.86     1.86   0.72046  -9.0479
 1.55000    1.86     1.86   0.71953  -9.0456
 1.60000    1.86     1.86   0.72280  -9.0469
 1.65000    1.86     1.86   0.72283  -9.0466
 1.70000    1.86     1.86   0.72628  -9.0477
 1.75000    1.86     1.86   0.72841  -9.0481
 1.80000    1.86     1.86   0.73015  -9.0484
 1.85000    1.86     1.86   0.73159  -9.0482
 1.90000    1.86     1.86   0.73009  -9.0478
 1.95000    1.86     1.86   0.73123  -9.0468
 2.00000    1.86     1.86   0.73135  -9.0467
 2.05000    1.86     1.86   0.73321  -9.0483
 2.10000    1.86     1.86   0.73261  -9.0483
 2.15000    1.86     1.86   0.73330  -9.0481
 2.20000    1.86     1.86   0.73369  -9.0478
 2.25000    1.86     1.86   0.73414  -9.0475
 2.30000    1.86     1.86   0.73300  -9.0462
 2.35000    1.86     1.86   0.73372  -9.0462
 2.40000    1.86     1.86   0.73516  -9.0472
 2.45000    1.86     1.86   0.73549  -9.0472
 2.50000    1.86     1.86   0.73711  -9.0475
 2.55000    1.86     1.86   0.73708  -9.0475
 2.60000    1.86     1.86   0.73717  -9.0473
 2.65000    1.86     1.86   0.73576  -9.0477
 2.70000    1.86     1.86   0.73537  -9.0470
 2.75000    1.86     1.86   0.73603  -9.0469
 2.80000    1.86     1.86   0.73783  -9.0472
 2.85000    1.86     1.86   0.73888  -9.0475
 2.90000    1.86     1.86   0.73825  -9.0478
 2.95000    1.86     1.86   0.73756  -9.0475
 3.00000    1.86     1.86   0.73648  -9.0470
 3.05000    1.86     1.86   0.73654  -9.0469
 3.10000    1.86     1.86   0.73777  -9.0471
 3.15000    1.86     1.86   0.73921  -9.0480
 3.20000    1.86     1.86   0.74050  -9.0475
 3.25000    1.86     1.86   0.73840  -9.0475
 3.30000    1.86     1.86   0.73846  -9.0466
 3.35000    1.86     1.86   0.73936  -9.0472
 3.40000    1.86     1.86   0.73891  -9.0477
 3.45000    1.86     1.86   0.74008  -9.0471
 3.50000    1.86     1.86   0.73876  -9.0471
 3.55000    1.86     1.86   0.74086  -9.0468
 3.60000    1.86     1.86   0.74014  -9.0467
 3.65000    1.86     1.86   0.74125  -9.0469
 3.70000    1.86     1.86   0.74071  -9.0471
 3.75000    1.86     1.86   0.74230  -9.0465
 3.80000    1.86     1.86   0.74287  -9.0475
 3.85000    1.86     1.86   0.74152  -9.0469
 3.90000    1.86     1.86   0.74212  -9.0470
 3.95000    1.86     1.86   0.74299  -9.0468
 4.00000    1.86     1.86   0.74323  -9.0470
 4.05000    1.86     1.86   0.74401  -9.0469
 4.10000    1.86     1.86   0.74452  -9.0466
 4.15000    1.86     1.86   0.74227  -9.0472
 4.20000    1.86     1.86   0.74062  -9.0463
 4.25000    1.86     1.86   0.74278  -9.0470
 4.30000    1.86     1.86   0.74281  -9.0473
 4.35000    1.86     1.86   0.74230  -9.0472
 4.40000    1.86     1.86   0.74068  -9.0469
 4.45000    1.86     1.86   0.74257  -9.0467
 4.50000    1.86     1.86   0.74191  -9.0466
 4.55000    1.86     1.86   0.74242  -9.0465
 4.60000    1.86     1.86   0.74302  -9.0470
 4.65000    1.86     1.86   0.74164  -9.0470
 4.70000    1.86     1.86   0.74092  -9.0464
 4.75000    1.86     1.86   0.74029  -9.0467
 4.80000    1.86     1.86   0.74203  -9.0468
 4.85000    1.86     1.86   0.74182  -9.0473
 4.90000    1.86     1.86   0.74140  -9.0463
 4.95000    1.86     1.86   0.74206  -9.0468
 5.00000    1.86     1.86   0.74260  -9.0470
 5.05000    1.86     1.86   0.74206  -9.0468
 5.10000    1.86     1.86   0.74050  -9.0469
 5.15000    1.86     1.86   0.73864  -9.0458
 5.20000    1.86     1.86   0.73960  -9.0461
 5.25000    1.86     1.86   0.74038  -9.0470
 5.30000    1.86     1.86   0.74029  -9.0465
 5.35000    1.86     1.86   0.73960  -9.0467
 5.40000    1.86     1.86   0.74068  -9.0463
 5.45000    1.86     1.86   0.73807  -9.0464
 5.50000    1.86     1.86   0.74005  -9.0465
 5.55000    1.86     1.86   0.73855  -9.0459
 5.60000    1.86     1.86   0.73999  -9.0463
 5.65000    1.86     1.86   0.73993  -9.0464
 5.70000    1.86     1.86   0.74050  -9.0460
 5.75000    1.86     1.86   0.74149  -9.0464
 5.80000    1.86     1.86   0.74095  -9.0463
 5.85000    1.86     1.86   0.74053  -9.0465
 5.90000    1.86     1.86   0.73969  -9.0458
 5.95000    1.86     1.86   0.73876  -9.0457
 6.00000    1.86     1.86   0.73789  -9.0453
 6.05000    1.86     1.86   0.74128  -9.0459
 6.10000    1.86     1.86   0.74059  -9.0458
 6.15000    1.86     1.86   0.74122  -9.0459
 6.20000    1.86     1.86   0.73750  -9.0460
 6.25000    1.86     1.86   0.73870  -9.0457
 6.30000    1.86     1.86   0.74209  -9.0460
 6.35000    1.86     1.86   0.74227  -9.0458
 6.40000    1.86     1.86   0.74191  -9.0459
 6.45000    1.86     1.86   0.74149  -9.0459
 6.50000    1.86     1.86   0.73912  -9.0454
 6.55000    1.86     1.86   0.74029  -9.0459
 6.60000    1.86     1.86   0.73987  -9.0462
 6.65000    1.86     1.86   0.73948  -9.0454
 6.70000    1.86     1.86   0.74149  -9.0458
 6.75000    1.86     1.86   0.74140  -9.0459
 6.80000    1.86     1.86   0.74056  -9.0462
 6.85000    1.86     1.86   0.74125  -9.0455
 6.90000    1.86     1.86   0.73981  -9.0449
 6.95000    1.86     1.86   0.73771  -9.0447
 7.00000    1.86     1.86   0.73966  -9.0454
 7.00000    1.86     1.86   0.73906  -9.0451
 6.95000    1.86     1.86   0.73873  -9.0455
 6.90000    1.86     1.86   0.73843  -9.0445
 6.85000    1.86     1.86   0.74128  -9.0441
 6.80000    1.86     1.86   0.74185  -9.0446
 6.75000    1.86     1.86   0.73972  -9.0450
 6.70000    1.86     1.86   0.73948  -9.0451
 6.65000    1.86     1.86   0.74140  -9.0452
 6.60000    1.86     1.86   0.74062  -9.0451
 6.55000    1.86     1.86   0.74149  -9.0455
 6.50000    1.86     1.86   0.74080  -9.0450
 6.45000    1.86     1.86   0.74233  -9.0454
 6.40000    1.86     1.86   0.74287  -9.0452
 6.35000    1.86     1.86   0.74152  -9.0453
 6.30000    1.86     1.86   0.74182  -9.0446
 6.25000    1.86     1.86   0.74185  -9.0452
 6.20000    1.86     1.86   0.74395  -9.0453
 6.15000    1.86     1.86   0.74308  -9.0449
 6.10000    1.86     1.86   0.74230  -9.0448
 6.05000    1.86     1.86   0.74278  -9.0448
 6.00000    1.86     1.86   0.74320  -9.0457
 5.95000    1.86     1.86   0.74239  -9.0450
 5.90000    1.86     1.86   0.74029  -9.0446
 5.85000    1.86     1.86   0.74269  -9.0447
 5.80000    1.86     1.86   0.74320  -9.0451
 5.75000    1.86     1.86   0.74257  -9.0455
 5.70000    1.86     1.86   0.74233  -9.0448
 5.65000    1.86     1.86   0.74383  -9.0455
 5.60000    1.86     1.86   0.74317  -9.0455
 5.55000    1.86     1.86   0.74248  -9.0449
 5.50000    1.86     1.86   0.74458  -9.0451
 5.45000    1.86     1.86   0.74467  -9.0443
 5.40000    1.86     1.86   0.74503  -9.0445
 5.35000    1.86     1.86   0.74413  -9.0448
 5.30000    1.86     1.86   0.74473  -9.0449
 5.25000    1.86     1.86   0.74530  -9.0454
 5.20000    1.86     1.86   0.74497  -9.0450
 5.15000    1.86     1.86   0.74578  -9.0453
 5.10000    1.86     1.86   0.74734  -9.0453
 5.05000    1.86     1.86   0.74284  -9.0456
 5.00000    1.86     1.86   0.74347  -9.0448
 4.95000    1.86     1.86   0.74443  -9.0448
 4.90000    1.86     1.86   0.74581  -9.0452
 4.85000    1.86     1.86   0.74521  -9.0454
 4.80000    1.86     1.86   0.74509  -9.0445
 4.75000    1.86     1.86   0.74623  -9.0450
 4.70000    1.86     1.86   0.74740  -9.0452
 4.65000    1.86     1.86   0.74782  -9.0454
 4.60000    1.86     1.86   0.74857  -9.0450
 4.55000    1.86     1.86   0.74683  -9.0452
 4.50000    1.86     1.86   0.74578  -9.0449
 4.45000    1.86     1.86   0.74608  -9.0449
 4.40000    1.86     1.86   0.74791  -9.0453
 4.35000    1.86     1.86   0.74899  -9.0452
 4.30000    1.86     1.86   0.74758  -9.0450
 4.25000    1.86     1.86   0.74806  -9.0453
 4.20000    1.86     1.86   0.74884  -9.0450
 4.15000    1.86     1.86   0.74773  -9.0451
 4.10000    1.86     1.86   0.74956  -9.0456
 4.05000    1.86     1.86   0.74677  -9.0448
 4.00000    1.86     1.86   0.74737  -9.0449
 3.95000    1.86     1.86   0.74857  -9.0448
 3.90000    1.86     1.86   0.74956  -9.0457
 3.85000    1.86     1.86   0.75034  -9.0456
 3.80000    1.86     1.86   0.74998  -9.0452
 3.75000    1.86     1.86   0.74887  -9.0451
 3.70000    1.86     1.86   0.74908  -9.0450
 3.65000    1.86     1.86   0.74875  -9.0450
 3.60000    1.86     1.86   0.74773  -9.0449
 3.55000    1.86     1.86   0.74872  -9.0451
 3.50000    1.86     1.86   0.74938  -9.0453
 3.45000    1.86     1.86   0.74668  -9.0449
 3.40000    1.86     1.86   0.74989  -9.0452
 3.35000    1.86     1.86   0.75019  -9.0453
 3.30000    1.86     1.86   0.75016  -9.0454
 3.25000    1.86     1.86   0.74992  -9.0449
 3.20000    1.86     1.86   0.74653  -9.0448
 3.15000    1.86     1.86   0.74878  -9.0451
 3.10000    1.86     1.86   0.74944  -9.0453
 3.05000    1.86     1.86   0.74965  -9.0455
 3.00000    1.86     1.86   0.74806  -9.0448
 2.95000    1.86     1.86   0.74872  -9.0445
 2.90000    1.86     1.86   0.74668  -9.0448
 2.85000    1.86     1.86   0.74878  -9.0457
 2.80000    1.86     1.86   0.74821  -9.0455
 2.75000    1.86     1.86   0.74830  -9.0453
 2.70000    1.86     1.86   0.74575  -9.0452
 2.65000    1.86     1.86   0.74800  -9.0458
 2.60000    1.86     1.86   0.74827  -9.0450
 2.55000    1.86     1.86   0.74884  -9.0453
 2.50000    1.86     1.86   0.74647  -9.0450
 2.45000    1.86     1.86   0.74434  -9.0449
 2.40000    1.86     1.86   0.74740  -9.0452
 2.35000    1.86     1.86   0.74515  -9.0449
 2.30000    1.86     1.86   0.74554  -9.0448
 2.25000    1.86     1.86   0.74692  -9.0458
 2.20000    1.86     1.86   0.74380  -9.0447
 2.15000    1.86     1.86   0.74308  -9.0449
 2.10000    1.86     1.86   0.74197  -9.0448
 2.05000    1.86     1.86   0.74194  -9.0449
 2.00000    1.86     1.86   0.74203  -9.0447
 1.95000    1.86     1.86   0.74176  -9.0450
 1.90000    1.86     1.86   0.73876  -9.0449
 1.85000    1.86     1.86   0.73999  -9.0450
 1.80000    1.86     1.86   0.73936  -9.0447
 1.75000    1.86     1.86   0.74002  -9.0452
 1.70000    1.86     1.86   0.73729  -9.0441
 1.65000    1.86     1.86   0.73789  -9.0445
 1.60000    1.86     1.86   0.73621  -9.0443
 1.55000    1.86     1.86   0.73522  -9.0443
 1.50000    1.86     1.86   0.73381  -9.0440
 1.45000    1.86     1.86   0.73069  -9.0428
 1.40000    1.86     1.86   0.72919  -9.0436
 1.35000    1.86     1.86   0.72574  -9.0430
 1.30000    1.86     1.86   0.72286  -9.0431
 1.25000    1.86     1.86   0.72115  -9.0410
 1.20000    1.86     1.86   0.71998  -9.0415
 1.15000    1.86     1.86   0.72037  -9.0419
 1.10000    1.86     1.86   0.71917  -9.0412
 1.05000    1.86     1.86   0.71554  -9.0399
 1.00000    1.86     1.86   0.71509  -9.0388
 0.95000    1.86     1.86   0.71425  -9.0390
 0.90000    1.86     1.86   0.71275  -9.0382
 0.85000    1.86     1.86   0.71107  -9.0359
 0.80000    1.86     1.86   0.71062  -9.0352
 0.75000    1.86     1.86   0.70912  -9.0344
 0.70000    1.86     1.86   0.71032  -9.0330
 0.65000    1.86     1.86   0.71302  -9.0316
 0.60000    1.86     1.86   0.71497  -9.0300
 0.55000    1.86     1.86   0.71479  -9.0281
 0.50000    1.86     1.86   0.71722  -9.0267
 0.45000    1.86     1.86   0.72289  -9.0268
 0.40000    1.86     1.86   0.72694  -9.0277
 0.35000    1.86     1.86   0.72937  -9.0277
 0.30000    1.86     1.86   0.73321  -9.0275
 0.25000    1.86     1.86   0.73315  -9.0268
 0.20000    1.86     1.86   0.73390  -9.0272
 0.15000    1.86     1.86   0.73657  -9.0279
 0.10000    1.86     1.86   0.73726  -9.0278
 0.05000    1.86     1.86   0.73786  -9.0270
 -0.00000    1.86     1.86   0.73798  -9.0259
