 Field[T] Tsmpl[K] Tcntr[K] Signal   Mirror[MM]
 0.00000    1.85     1.85   0.25247  -9.0200
 0.05000    1.85     1.85   0.25101  -9.0196
 0.10000    1.85     1.85   0.24960  -9.0198
 0.15000    1.85     1.85   0.25192  -9.0198
 0.20000    1.85     1.85   0.25152  -9.0202
 0.25000    1.85     1.85   0.24974  -9.0194
 0.30000    1.85     1.85   0.24807  -9.0194
 0.35000    1.85     1.85   0.25079  -9.0202
 0.40000    1.85     1.85   0.24857  -9.0199
 0.45000    1.85     1.85   0.24987  -9.0199
 0.50000    1.85     1.85   0.24803  -9.0203
 0.55000    1.85     1.85   0.24828  -9.0203
 0.60000    1.85     1.85   0.24895  -9.0202
 0.65000    1.85     1.85   0.24654  -9.0201
 0.70000    1.85     1.85   0.24517  -9.0202
 0.75000    1.85     1.85   0.24759  -9.0207
 0.80000    1.85     1.85   0.24955  -9.0214
 0.85000    1.85     1.85   0.24667  -9.0209
 0.90000    1.85     1.85   0.24910  -9.0202
 0.95000    1.85     1.85   0.24830  -9.0210
 1.00000    1.85     1.85   0.25058  -9.0213
 1.05000    1.85     1.85   0.25096  -9.0214
 1.10000    1.85     1.85   0.24607  -9.0212
 1.15000    1.85     1.85   0.24605  -9.0218
 1.20000    1.85     1.85   0.24928  -9.0219
 1.25000    1.85     1.85   0.24848  -9.0221
 1.30000    1.85     1.85   0.24931  -9.0222
 1.35000    1.85     1.85   0.24691  -9.0215
 1.40000    1.85     1.85   0.24792  -9.0220
 1.45000    1.85     1.85   0.24774  -9.0224
 1.50000    1.85     1.85   0.24788  -9.0225
 1.55000    1.85     1.85   0.24806  -9.0217
 1.60000    1.85     1.85   0.24793  -9.0222
 1.65000    1.85     1.85   0.24842  -9.0220
 1.70000    1.85     1.85   0.24822  -9.0223
 1.75000    1.85     1.85   0.24846  -9.0235
 1.80000    1.85     1.85   0.24819  -9.0222
 1.85000    1.85     1.85   0.24763  -9.0219
 1.90000    1.85     1.85   0.24899  -9.0223
 1.95000    1.85     1.85   0.24848  -9.0221
 2.00000    1.85     1.85   0.24965  -9.0219
 2.05000    1.85     1.85   0.24904  -9.0216
 2.10000    1.85     1.85   0.24693  -9.0219
 2.15000    1.85     1.85   0.24818  -9.0226
 2.20000    1.85     1.85   0.24852  -9.0225
 2.25000    1.85     1.85   0.24694  -9.0225
 2.30000    1.85     1.85   0.24708  -9.0219
 2.35000    1.85     1.85   0.24642  -9.0215
 2.40000    1.85     1.85   0.24716  -9.0211
 2.45000    1.85     1.85   0.24775  -9.0221
 2.50000    1.85     1.85   0.24739  -9.0226
 2.55000    1.85     1.85   0.24750  -9.0214
 2.60000    1.85     1.85   0.24724  -9.0228
 2.65000    1.85     1.85   0.24696  -9.0215
 2.70000    1.85     1.85   0.24534  -9.0213
 2.75000    1.85     1.85   0.24896  -9.0225
 2.80000    1.85     1.85   0.24916  -9.0228
 2.85000    1.85     1.85   0.24900  -9.0228
 2.90000    1.85     1.85   0.24912  -9.0228
 2.95000    1.85     1.85   0.24918  -9.0225
 3.00000    1.85     1.85   0.24574  -9.0218
 3.05000    1.85     1.85   0.24743  -9.0227
 3.10000    1.85     1.85   0.24351  -9.0214
 3.15000    1.85     1.85   0.24619  -9.0235
 3.20000    1.85     1.85   0.24712  -9.0228
 3.25000    1.85     1.85   0.24798  -9.0226
 3.30000    1.85     1.85   0.24686  -9.0227
 3.35000    1.85     1.85   0.24603  -9.0227
 3.40000    1.85     1.85   0.24680  -9.0219
 3.45000    1.85     1.85   0.24660  -9.0231
 3.50000    1.85     1.85   0.24673  -9.0222
 3.55000    1.85     1.85   0.24627  -9.0218
 3.60000    1.85     1.85   0.24687  -9.0225
 3.65000    1.85     1.85   0.24751  -9.0228
 3.70000    1.85     1.85   0.24844  -9.0233
 3.75000    1.85     1.85   0.24792  -9.0229
 3.80000    1.85     1.85   0.24746  -9.0224
 3.85000    1.85     1.85   0.24641  -9.0224
 3.90000    1.85     1.85   0.24691  -9.0230
 3.95000    1.85     1.85   0.24493  -9.0217
 4.00000    1.85     1.85   0.24539  -9.0222
 4.00000    1.85     1.85   0.24692  -9.0229
 3.95000    1.85     1.85   0.24503  -9.0229
 3.90000    1.85     1.85   0.24508  -9.0231
 3.85000    1.85     1.85   0.24512  -9.0225
 3.80000    1.85     1.85   0.24674  -9.0226
 3.75000    1.85     1.85   0.24509  -9.0231
 3.70000    1.85     1.85   0.24725  -9.0231
 3.65000    1.85     1.85   0.24446  -9.0220
 3.60000    1.85     1.85   0.24420  -9.0224
 3.55000    1.85     1.85   0.24500  -9.0237
 3.50000    1.85     1.85   0.24733  -9.0231
 3.45000    1.85     1.85   0.24711  -9.0236
 3.40000    1.85     1.85   0.24686  -9.0235
 3.35000    1.85     1.85   0.24792  -9.0234
 3.30000    1.85     1.85   0.24669  -9.0230
 3.25000    1.85     1.85   0.24736  -9.0230
 3.20000    1.85     1.85   0.24747  -9.0232
 3.15000    1.85     1.85   0.24621  -9.0232
 3.10000    1.85     1.85   0.24625  -9.0230
 3.05000    1.85     1.85   0.24725  -9.0228
 3.00000    1.85     1.85   0.24757  -9.0230
 2.95000    1.85     1.85   0.24426  -9.0235
 2.90000    1.85     1.85   0.24608  -9.0236
 2.85000    1.85     1.85   0.24629  -9.0234
 2.80000    1.85     1.85   0.24548  -9.0234
 2.75000    1.85     1.85   0.24664  -9.0236
 2.70000    1.85     1.85   0.24597  -9.0235
 2.65000    1.85     1.85   0.24666  -9.0238
 2.60000    1.85     1.85   0.24329  -9.0226
 2.55000    1.85     1.85   0.24551  -9.0236
 2.50000    1.85     1.85   0.24695  -9.0237
 2.45000    1.85     1.85   0.24666  -9.0234
 2.40000    1.85     1.85   0.24655  -9.0235
 2.35000    1.85     1.85   0.24599  -9.0231
 2.30000    1.85     1.85   0.24520  -9.0239
 2.25000    1.85     1.85   0.24655  -9.0243
 2.20000    1.85     1.85   0.24738  -9.0236
 2.15000    1.85     1.85   0.24665  -9.0235
 2.10000    1.85     1.85   0.24602  -9.0228
 2.05000    1.85     1.85   0.24672  -9.0237
 2.00000    1.85     1.85   0.24741  -9.0240
 1.95000    1.85     1.85   0.24524  -9.0241
 1.90000    1.85     1.85   0.24610  -9.0241
 1.85000    1.85     1.85   0.24645  -9.0234
 1.80000    1.85     1.85   0.24591  -9.0239
 1.75000    1.85     1.85   0.24703  -9.0233
 1.70000    1.85     1.85   0.24585  -9.0233
 1.65000    1.85     1.85   0.24783  -9.0230
 1.60000    1.85     1.85   0.24786  -9.0234
 1.55000    1.85     1.85   0.24708  -9.0235
 1.50000    1.85     1.85   0.24438  -9.0241
 1.45000    1.85     1.85   0.24720  -9.0233
 1.40000    1.85     1.85   0.24674  -9.0238
 1.35000    1.85     1.85   0.24638  -9.0239
 1.30000    1.85     1.85   0.24559  -9.0232
 1.25000    1.85     1.85   0.24581  -9.0231
 1.20000    1.85     1.85   0.24687  -9.0232
 1.15000    1.85     1.85   0.24610  -9.0234
 1.10000    1.85     1.85   0.24622  -9.0232
 1.05000    1.85     1.85   0.24526  -9.0226
 1.00000    1.85     1.85   0.24559  -9.0226
 0.95000    1.85     1.85   0.24489  -9.0230
 0.90000    1.85     1.85   0.24508  -9.0227
 0.85000    1.85     1.85   0.24658  -9.0222
 0.80000    1.85     1.85   0.24588  -9.0223
 0.75000    1.85     1.85   0.24513  -9.0213
 0.70000    1.85     1.85   0.24588  -9.0220
 0.65000    1.85     1.85   0.24623  -9.0219
 0.60000    1.85     1.85   0.24638  -9.0214
 0.55000    1.85     1.85   0.24750  -9.0213
 0.50000    1.85     1.85   0.24559  -9.0209
 0.45000    1.85     1.85   0.24643  -9.0209
 0.40000    1.85     1.85   0.24587  -9.0211
 0.35000    1.85     1.85   0.24679  -9.0211
 0.30000    1.85     1.85   0.24371  -9.0201
 0.25000    1.85     1.85   0.24735  -9.0207
 0.20000    1.85     1.85   0.24590  -9.0207
 0.15000    1.85     1.85   0.24688  -9.0208
 0.10000    1.85     1.85   0.24649  -9.0207
 0.05000    1.85     1.85   0.24687  -9.0203
 -0.00000    1.85     1.85   0.24849  -9.0205
