 Field[T] Tsmpl[K] Tcntr[K] Signal   Mirror[MM]
 0.00000    1.84     1.84   0.81966  -8.9641
 0.05000    1.84     1.84   0.81996  -8.9646
 0.10000    1.84     1.84   0.82001  -8.9646
 0.15000    1.84     1.84   0.82312  -8.9646
 0.20000    1.84     1.84   0.82254  -8.9646
 0.25000    1.84     1.84   0.82115  -8.9646
 0.30000    1.84     1.84   0.81994  -8.9646
 0.35000    1.84     1.84   0.81973  -8.9646
 0.40000    1.84     1.84   0.81949  -8.9646
 0.45000    1.84     1.84   0.82102  -8.9646
 0.50000    1.84     1.84   0.82310  -8.9646
 0.55000    1.84     1.84   0.82254  -8.9646
 0.60000    1.84     1.84   0.82214  -8.9646
 0.65000    1.84     1.84   0.82220  -8.9646
 0.70000    1.84     1.84   0.82155  -8.9646
 0.75000    1.84     1.84   0.82050  -8.9646
 0.80000    1.84     1.84   0.82123  -8.9646
 0.85000    1.84     1.84   0.82204  -8.9646
 0.90000    1.84     1.84   0.82092  -8.9646
 0.95000    1.84     1.84   0.82001  -8.9646
 1.00000    1.84     1.84   0.81906  -8.9646
 1.05000    1.84     1.84   0.82005  -8.9646
 1.10000    1.84     1.84   0.81939  -8.9646
 1.15000    1.84     1.84   0.81782  -8.9646
 1.20000    1.84     1.84   0.81720  -8.9646
 1.25000    1.84     1.84   0.81701  -8.9646
 1.30000    1.84     1.84   0.81606  -8.9651
 1.35000    1.84     1.84   0.81559  -8.9651
 1.40000    1.84     1.84   0.81497  -8.9651
 1.45000    1.84     1.84   0.81425  -8.9651
 1.50000    1.84     1.84   0.81409  -8.9651
 1.55000    1.84     1.84   0.81325  -8.9651
 1.60000    1.84     1.84   0.81348  -8.9651
 1.65000    1.84     1.84   0.81288  -8.9656
 1.70000    1.84     1.84   0.81180  -8.9656
 1.75000    1.84     1.84   0.81143  -8.9656
 1.80000    1.84     1.84   0.81124  -8.9656
 1.85000    1.84     1.84   0.81016  -8.9661
 1.90000    1.84     1.84   0.80927  -8.9661
 1.95000    1.84     1.84   0.80924  -8.9661
 2.00000    1.84     1.84   0.80925  -8.9661
 2.05000    1.84     1.84   0.80945  -8.9661
 2.10000    1.84     1.84   0.80866  -8.9661
 2.15000    1.84     1.84   0.80904  -8.9666
 2.20000    1.84     1.84   0.80869  -8.9666
 2.25000    1.84     1.84   0.80986  -8.9666
 2.30000    1.84     1.84   0.80886  -8.9666
 2.35000    1.84     1.84   0.80865  -8.9666
 2.40000    1.84     1.84   0.80934  -8.9671
 2.45000    1.84     1.84   0.80965  -8.9671
 2.50000    1.84     1.84   0.80905  -8.9671
 2.55000    1.84     1.84   0.80921  -8.9671
 2.60000    1.84     1.84   0.80960  -8.9671
 2.65000    1.84     1.84   0.81071  -8.9676
 2.70000    1.84     1.84   0.81104  -8.9676
 2.75000    1.84     1.84   0.81215  -8.9676
 2.80000    1.84     1.84   0.81426  -8.9676
 2.85000    1.84     1.84   0.81287  -8.9676
 2.90000    1.84     1.84   0.81252  -8.9676
 2.95000    1.84     1.84   0.81164  -8.9676
 3.00000    1.84     1.84   0.81200  -8.9676
 3.05000    1.84     1.84   0.81245  -8.9676
 3.10000    1.84     1.84   0.81240  -8.9676
 3.15000    1.84     1.84   0.81285  -8.9676
 3.20000    1.84     1.84   0.81252  -8.9676
 3.25000    1.84     1.84   0.81370  -8.9676
 3.30000    1.84     1.84   0.81477  -8.9676
 3.35000    1.84     1.84   0.81459  -8.9676
 3.40000    1.84     1.84   0.81289  -8.9676
 3.45000    1.84     1.84   0.81347  -8.9676
 3.50000    1.84     1.84   0.81249  -8.9676
 3.55000    1.84     1.84   0.81243  -8.9676
 3.60000    1.84     1.84   0.81312  -8.9676
 3.65000    1.84     1.84   0.81390  -8.9676
 3.70000    1.84     1.84   0.81373  -8.9676
 3.80000    1.84     1.84   0.81337  -8.9666
 3.85000    1.84     1.84   0.81341  -8.9666
 3.90000    1.84     1.84   0.81324  -8.9666
 3.95000    1.84     1.84   0.81248  -8.9666
 4.00000    1.84     1.84   0.81210  -8.9665
 4.05000    1.84     1.84   0.81344  -8.9665
 4.10000    1.84     1.84   0.81288  -8.9666
 4.15000    1.84     1.84   0.81301  -8.9666
 4.20000    1.84     1.84   0.81252  -8.9664
 4.25000    1.84     1.84   0.81253  -8.9663
 4.30000    1.84     1.84   0.81271  -8.9664
 4.35000    1.84     1.84   0.81245  -8.9665
 4.40000    1.84     1.84   0.81135  -8.9666
 4.45000    1.84     1.84   0.81193  -8.9668
 4.50000    1.84     1.84   0.81192  -8.9665
 4.55000    1.84     1.84   0.81281  -8.9664
 4.60000    1.84     1.84   0.81243  -8.9664
 4.65000    1.84     1.84   0.81217  -8.9663
 4.70000    1.84     1.84   0.81166  -8.9663
 4.75000    1.84     1.84   0.80983  -8.9662
 4.80000    1.84     1.84   0.80902  -8.9664
 4.85000    1.84     1.84   0.81043  -8.9664
 4.90000    1.84     1.84   0.81050  -8.9662
 4.95000    1.84     1.84   0.81081  -8.9661
 5.00000    1.84     1.84   0.81019  -8.9662
 5.00000    1.84     1.84   0.81016  -8.9663
 4.95000    1.84     1.84   0.81115  -8.9663
 4.90000    1.84     1.84   0.81207  -8.9665
 4.85000    1.84     1.84   0.81225  -8.9664
 4.80000    1.84     1.84   0.81197  -8.9664
 4.75000    1.84     1.84   0.81311  -8.9665
 4.70000    1.84     1.84   0.81209  -8.9664
 4.65000    1.84     1.84   0.81160  -8.9662
 4.60000    1.84     1.84   0.81305  -8.9663
 4.55000    1.84     1.84   0.81395  -8.9662
 4.50000    1.84     1.84   0.81379  -8.9664
 4.45000    1.84     1.84   0.81180  -8.9664
 4.40000    1.84     1.84   0.81238  -8.9664
 4.35000    1.84     1.84   0.81351  -8.9663
 4.30000    1.84     1.84   0.81232  -8.9663
 4.25000    1.84     1.84   0.81197  -8.9663
 4.20000    1.84     1.84   0.81200  -8.9664
 4.15000    1.84     1.84   0.81251  -8.9664
 4.10000    1.84     1.84   0.81258  -8.9665
 4.05000    1.84     1.84   0.81327  -8.9663
 4.00000    1.84     1.84   0.81372  -8.9664
 3.95000    1.84     1.84   0.81300  -8.9662
 3.90000    1.84     1.84   0.81344  -8.9664
 3.85000    1.84     1.84   0.81393  -8.9663
 3.80000    1.84     1.84   0.81435  -8.9660
 3.75000    1.84     1.84   0.81302  -8.9663
 3.70000    1.84     1.84   0.81291  -8.9662
 3.65000    1.84     1.84   0.81403  -8.9662
 3.60000    1.84     1.84   0.81318  -8.9661
 3.55000    1.84     1.84   0.81292  -8.9663
 3.50000    1.84     1.84   0.81236  -8.9663
 3.45000    1.84     1.84   0.81186  -8.9661
 3.40000    1.84     1.84   0.81300  -8.9660
 3.35000    1.84     1.84   0.81389  -8.9660
 3.30000    1.84     1.84   0.81265  -8.9659
 3.25000    1.84     1.84   0.81341  -8.9662
 3.20000    1.84     1.84   0.81245  -8.9660
 3.15000    1.84     1.84   0.81117  -8.9661
 3.10000    1.84     1.84   0.81243  -8.9661
 3.05000    1.84     1.84   0.81220  -8.9660
 3.00000    1.84     1.84   0.81380  -8.9662
 2.95000    1.84     1.84   0.81232  -8.9660
 2.90000    1.84     1.84   0.81269  -8.9659
 2.85000    1.84     1.84   0.81163  -8.9660
 2.80000    1.84     1.84   0.81111  -8.9658
 2.75000    1.84     1.84   0.81246  -8.9658
 2.70000    1.84     1.84   0.81156  -8.9659
 2.65000    1.84     1.84   0.81017  -8.9659
 2.60000    1.84     1.84   0.80955  -8.9659
 2.55000    1.84     1.84   0.80984  -8.9657
 2.50000    1.84     1.84   0.80801  -8.9656
 2.45000    1.84     1.84   0.80849  -8.9656
 2.40000    1.84     1.84   0.80829  -8.9656
 2.35000    1.84     1.84   0.80911  -8.9655
 2.30000    1.84     1.84   0.80883  -8.9656
 2.25000    1.84     1.84   0.81043  -8.9652
 2.20000    1.84     1.84   0.80931  -8.9652
 2.15000    1.84     1.84   0.80803  -8.9652
 2.10000    1.84     1.84   0.80741  -8.9651
 2.05000    1.84     1.84   0.80713  -8.9648
 2.00000    1.84     1.84   0.80843  -8.9649
 1.95000    1.84     1.84   0.80796  -8.9648
 1.90000    1.84     1.84   0.80754  -8.9645
 1.85000    1.84     1.84   0.80808  -8.9645
 1.80000    1.84     1.84   0.80921  -8.9642
 1.75000    1.84     1.84   0.80941  -8.9639
 1.70000    1.84     1.84   0.80928  -8.9638
 1.65000    1.84     1.84   0.80934  -8.9638
 1.60000    1.84     1.84   0.80846  -8.9636
 1.55000    1.84     1.84   0.80938  -8.9635
 1.50000    1.84     1.84   0.81153  -8.9635
 1.45000    1.84     1.84   0.81298  -8.9634
 1.40000    1.84     1.84   0.81196  -8.9632
 1.35000    1.84     1.84   0.81203  -8.9633
 1.30000    1.84     1.84   0.81233  -8.9631
 1.25000    1.84     1.84   0.81163  -8.9630
 1.20000    1.84     1.84   0.81086  -8.9626
 1.15000    1.84     1.84   0.81274  -8.9629
 1.10000    1.84     1.84   0.81422  -8.9629
 1.05000    1.84     1.84   0.81403  -8.9628
 1.00000    1.84     1.84   0.81528  -8.9626
 0.95000    1.84     1.84   0.81626  -8.9626
 0.90000    1.84     1.84   0.81776  -8.9625
 0.85000    1.84     1.84   0.81837  -8.9625
 0.80000    1.84     1.84   0.81992  -8.9625
 0.75000    1.84     1.84   0.81965  -8.9624
 0.70000    1.84     1.84   0.82099  -8.9624
 0.65000    1.84     1.84   0.81960  -8.9623
 0.60000    1.84     1.84   0.81984  -8.9619
 0.55000    1.84     1.84   0.81978  -8.9622
 0.50000    1.84     1.84   0.82035  -8.9625
 0.45000    1.84     1.84   0.82107  -8.9622
 0.40000    1.84     1.84   0.82341  -8.9623
 0.35000    1.84     1.84   0.82387  -8.9625
 0.30000    1.84     1.84   0.82318  -8.9624
 0.25000    1.84     1.84   0.81534  -8.9612
 0.20000    1.84     1.84   0.81914  -8.9622
 0.15000    1.84     1.84   0.81893  -8.9624
 0.10000    1.84     1.84   0.82020  -8.9625
 0.05000    1.84     1.84   0.82073  -8.9623
 -0.00000    1.84     1.84   0.82148  -8.9624
