 Field[T] Tsmpl[K] Tcntr[K] Signal Mirror[MM] RefSignal
 4.00000    5.05     3.02   1.48716  2.6704   7.84639
 3.95000    5.06     3.02   1.48606  2.6704   7.84452
 3.90000    5.07     3.02   1.48547  2.6703   7.84481
 3.85000    5.08     3.02   1.48467  2.6704   7.84083
 3.80000    5.09     3.03   1.48455  2.6703   7.84003
 3.75000    5.10     3.04   1.48399  2.6701   7.83901
 3.70000    5.11     3.03   1.48340  2.6699   7.83102
 3.65000    5.12     3.04   1.48136  2.6702   7.82950
 3.60000    5.13     3.06   1.48215  2.6700   7.83079
 3.55000    5.15     3.04   1.48046  2.6700   7.83099
 3.50000    5.16     3.05   1.48031  2.6699   7.82908
 3.45000    5.17     3.04   1.47974  2.6700   7.82649
 3.40000    5.18     3.06   1.47919  2.6697   7.82749
 3.35000    5.19     3.05   1.47811  2.6696   7.81261
 3.30000    5.20     3.05   1.47713  2.6696   7.81811
 3.25000    5.22     3.05   1.47686  2.6694   7.81876
 3.20000    5.23     3.05   1.47552  2.6694   7.81683
 3.15000    5.24     3.05   1.47504  2.6694   7.81611
 3.10000    5.25     3.05   1.47455  2.6693   7.81726
 3.05000    5.26     3.05   1.47351  2.6691   7.81531
 3.00000    5.27     3.06   1.47299  2.6691   7.81226
 2.95000    5.28     3.04   1.47226  2.6691   7.81430
 2.90000    5.29     3.06   1.47129  2.6692   7.81387
 2.85000    5.30     3.04   1.47052  2.6691   7.81116
 2.80000    5.30     3.04   1.46956  2.6688   7.80577
 2.75000    5.31     3.05   1.46930  2.6687   7.80895
 2.70000    5.32     3.04   1.46823  2.6686   7.80302
 2.65000    5.33     3.04   1.46691  2.6685   7.80593
 2.60000    5.34     3.05   1.46574  2.6685   7.79716
 2.55000    5.35     3.03   1.46480  2.6685   7.80034
 2.50000    5.36     3.04   1.46408  2.6681   7.79880
 2.45000    5.38     3.05   1.46372  2.6679   7.79734
 2.40000    5.39     3.04   1.46251  2.6679   7.79525
 2.35000    5.41     3.03   1.46130  2.6677   7.79435
 2.30000    5.41     3.03   1.46093  2.6675   7.79429
 2.25000    5.42     3.03  -0.05622  2.6341   7.79094
 2.20000    5.43     3.03   1.45826  2.6674   7.79420
 2.15000    5.44     3.02   1.45695  2.6671   7.79042
 2.10000    5.45     3.03   1.45503  2.6671   7.78933
 2.05000    5.45     3.01   1.45470  2.6668   7.78548
 2.00000    5.44     3.02   1.45329  2.6665   7.78238
 1.95000    5.43     3.01   1.45170  2.6665   7.78316
 1.90000    5.42     3.01   1.45039  2.6666   7.78096
 1.85000    5.41     3.01   1.44900  2.6666   7.78214
 1.80000    5.41     3.00   1.44711  2.6662   7.77774
 1.75000    5.40     3.00   1.44544  2.6661   7.77659
 1.70000    5.39     3.00   1.44311  2.6663   7.77634
 1.65000    5.38     3.01   1.44155  2.6662   7.77447
 1.60000    5.38     2.99   1.43975  2.6661   7.77371
 1.55000    5.37     2.99   1.43863  2.6662   7.77335
 1.50000    5.36     3.00   1.43620  2.6663   7.77416
 1.45000    5.36     3.00   1.43462  2.6660   7.77029
 1.40000    5.36     3.00   1.43314  2.6658   7.76594
 1.35000    5.36     2.99   1.43157  2.6659   7.76597
 1.30000    5.35     2.99   1.43055  2.6658   7.76520
 1.25000    5.35     3.00   1.42884  2.6661   7.76754
 1.20000    5.34     2.99   1.42670  2.6662   7.76432
 1.15000    5.34     3.00   1.42432  2.6664   7.76268
 1.10000    5.33     2.99   1.42221  2.6664   7.75958
 1.05000    5.32     2.99   1.42150  2.6662   7.75914
 1.00000    5.32     3.00   1.42003  2.6663   7.75652
 0.95000    5.32     3.00   1.41780  2.6662   7.75418
 0.90000    5.31     3.01   1.41741  2.6664   7.75429
 0.85000    5.32     2.99   1.41674  2.6663   7.75517
 0.80000    5.31     3.00   1.41660  2.6664   7.75486
 0.75000    5.31     2.99   1.41541  2.6665   7.75213
 0.70000    5.31     2.99   1.41614  2.6664   7.75228
 0.65000    5.30     2.99   1.41511  2.6663   7.74912
 0.60000    5.28     2.98   1.41482  2.6661   7.75146
 0.55000    5.26     3.01   1.41428  2.6661   7.75030
 0.50000    5.24     2.99   1.41326  2.6658   7.74466
 0.45000    5.23     2.99   1.41347  2.6659   7.74355
 0.40000    5.21     2.99   1.41317  2.6657   7.74190
 0.35000    5.20     2.99   1.41176  2.6657   7.74363
 0.30000    5.19     3.01   1.41182  2.6653   7.74002
 0.25000    5.18     2.99   1.41128  2.6653   7.73688
 0.20000    5.18     2.99   1.41076  2.6652   7.73700
 0.15000    5.18     2.99   1.40978  2.6649   7.74021
 0.10000    5.18     2.99   1.40989  2.6648   7.73661
 0.05000    5.18     2.99   1.40884  2.6646   7.73503
-0.00000    5.18     3.00   1.40861  2.6643   7.73369
