 Field[T] Tsmpl[K] Tcntr[K] Signal Mirror[MM] RefSignal
 0.00000    5.07     2.98   2.53054  2.5865   3.73543
 0.05000    5.06     2.98   2.53214  2.5868   3.73611
 0.10000    5.04     2.98   2.53180  2.5870   3.73606
 0.15000    5.03     2.97   2.53114  2.5873   3.73452
 0.20000    5.02     2.97   2.53214  2.5874   3.73489
 0.25000    5.01     2.99   2.53282  2.5876   3.73480
 0.30000    5.01     2.97   2.53314  2.5879   3.73545
 0.35000    4.99     2.96   2.53270  2.5879   3.73486
 0.40000    4.97     2.98   2.53269  2.5882   3.73210
 0.45000    4.96     2.96   2.53269  2.5884   3.73317
 0.50000    4.94     2.97   2.53325  2.5885   3.73302
 0.55000    4.93     2.96   2.53322  2.5889   3.73213
 0.60000    4.91     2.97   2.53361  2.5889   3.73060
 0.65000    4.89     2.97   2.53329  2.5891   3.73260
 0.70000    4.87     2.96   2.53404  2.5892   3.73404
 0.75000    4.86     2.98   2.53463  2.5893   3.73192
 0.80000    4.84     2.96   2.53431  2.5896   3.73057
 0.85000    4.82     2.96   2.53423  2.5898   3.72977
 0.90000    4.81     2.95   2.53520  2.5899   3.73193
 0.95000    4.79     2.96   2.53643  2.5901   3.73228
 1.00000    4.78     2.97   2.53492  2.5901   3.72945
 1.05000    4.77     2.96   2.53484  2.5903   3.73138
 1.10000    4.76     2.95   2.53537  2.5903   3.72999
 1.15000    4.75     2.95   2.53487  2.5904   3.72973
 1.20000    4.74     2.96   2.53401  2.5906   3.73039
 1.25000    4.74     2.96   2.53398  2.5906   3.73068
 1.30000    4.73     2.95   2.53199  2.5906   3.73211
 1.35000    4.73     2.95   2.53200  2.5914   3.73198
 1.40000    4.72     2.96   2.53065  2.5906   3.73133
 1.45000    4.72     2.95   2.53007  2.5906   3.73391
 1.50000    4.74     2.96   2.52936  2.5909   3.73285
 1.55000    4.74     2.96   2.52966  2.5907   3.73414
 1.60000    4.75     2.97   2.52946  2.5908   3.73351
 1.65000    4.76     2.96   2.52874  2.5908   3.73361
 1.70000    4.77     2.96   2.52768  2.5910   3.73502
 1.75000    4.77     2.96   2.52798  2.5908   3.73535
 1.80000    4.78     2.96   2.52797  2.5909   3.73413
 1.85000    4.79     2.97   2.52865  2.5908   3.73366
 1.90000    4.80     2.98   2.52921  2.5907   3.73712
 1.95000    4.82     2.97   2.52922  2.5907   3.73570
 2.00000    4.83     2.98   2.52968  2.5906   3.73441
 2.05000    4.84     2.99   2.53167  2.5905   3.73363
 2.10000    4.86     2.98   2.53273  2.5905   3.73657
 2.15000    4.86     2.99   2.53438  2.5903   3.73703
 2.20000    4.88     2.99   2.53516  2.5904   3.73872
 2.25000    4.89     2.99   2.53644  2.5905   3.73960
 2.30000    4.90     3.00   2.53731  2.5904   3.73863
 2.35000    4.91     2.99   2.53811  2.5903   3.73704
 2.40000    4.91     2.99   2.53929  2.5905   3.73913
 2.45000    4.93     2.99   2.54065  2.5906   3.73969
 2.50000    4.93     3.00   2.54233  2.5905   3.74128
 2.55000    4.94     3.01   2.54354  2.5907   3.74067
 2.60000    4.94     2.99   2.54472  2.5906   3.73934
 2.65000    4.94     2.99   2.54580  2.5907   3.74025
 2.70000    4.93     2.99   2.54751  2.5905   3.74282
 2.75000    4.93     2.99   2.54960  2.5904   3.74332
 2.80000    4.93     3.00   2.55149  2.5907   3.74179
 2.85000    4.93     3.00   2.55209  2.5906   3.74383
 2.90000    4.94     3.02   2.55412  2.5906   3.74421
 2.95000    4.95     3.01   2.55527  2.5907   3.74569
 3.00000    4.96     3.01   2.55699  2.5908   3.74623
 3.05000    4.96     3.00   2.55827  2.5907   3.74465
 3.10000    4.97     3.02   2.56005  2.5907   3.74581
 3.15000    4.98     3.00   2.55955  2.5909   3.74672
 3.20000    4.98     3.01   2.56198  2.5907   3.74221
 3.25000    4.99     3.00   2.56495  2.5907   3.74948
 3.30000    5.00     3.02   2.56617  2.5906   3.74692
 3.35000    5.01     3.00   2.56864  2.5905   3.74823
 3.40000    5.01     3.01   2.56954  2.5907   3.74821
 3.45000    5.02     3.01   2.57201  2.5906   3.74682
 3.50000    5.03     3.01   2.57251  2.5907   3.74573
 3.55000    5.04     3.01   2.57489  2.5906   3.74503
 3.60000    5.04     3.01   2.57456  2.5908   3.74636
 3.65000    5.04     3.03   2.57620  2.5907   3.74738
 3.70000    5.05     3.01   2.57813  2.5910   3.74891
 3.75000    5.05     3.02   2.57293  2.5915   3.74758
 3.80000    5.05     3.01   2.58010  2.5913   3.74672
 3.85000    5.05     3.03   2.58153  2.5912   3.74756
 3.90000    5.05     3.01   2.58316  2.5911   3.74949
 3.95000    5.03     3.02   2.58475  2.5909   3.74811
 4.00000    5.03     3.01   2.58620  2.5909   3.74831
