 Field[T] Tsmpl[K] Tcntr[K] Signal Mirror[MM] RefSignal
 0.00000    1.81     1.82   0.87757  0.7369   1.18229
 0.05000    1.81     1.82   0.87724  0.7372   1.18017
 0.10000    1.81     1.82   0.87701  0.7367   1.17854
 0.15000    1.81     1.82   0.87673  0.7367   1.18215
 0.20000    1.81     1.82   0.87677  0.7370   1.17619
 0.25000    1.81     1.82   0.87668  0.7367   1.18168
 0.30000    1.81     1.82   0.87638  0.7365   1.17952
 0.35000    1.81     1.82   0.87614  0.7366   1.18008
 0.40000    1.81     1.82   0.87550  0.7368   1.17858
 0.45000    1.81     1.82   0.87517  0.7368   1.17950
 0.50000    1.81     1.82   0.87453  0.7362   1.17956
 0.55000    1.81     1.82   0.87393  0.7364   1.17923
 0.60000    1.81     1.82   0.87333  0.7366   1.17993
 0.65000    1.81     1.82   0.87222  0.7368   1.17879
 0.70000    1.81     1.82   0.87094  0.7370   1.17932
 0.75000    1.81     1.82   0.86918  0.7371   1.17936
 0.80000    1.81     1.82   0.86754  0.7374   1.17988
 0.85000    1.81     1.82   0.86437  0.7376   1.17945
 0.90000    1.81     1.82   0.86005  0.7375   1.17919
 0.95000    1.81     1.82   0.85508  0.7372   1.17880
 1.00000    1.81     1.82   0.85018  0.7367   1.17904
 1.05000    1.81     1.82   0.84530  0.7358   1.17951
 1.10000    1.81     1.82   0.84132  0.7348   1.17949
 1.15000    1.81     1.82   0.83946  0.7335   1.18058
 1.20000    1.81     1.82   0.83893  0.7319   1.17942
 1.25000    1.81     1.82   0.84006  0.7308   1.17803
 1.30000    1.81     1.82   0.84207  0.7297   1.17937
 1.35000    1.81     1.83   0.84434  0.7287   1.18014
 1.40000    1.81     1.83   0.84662  0.7279   1.17908
 1.45000    1.81     1.83   0.84973  0.7272   1.17862
 1.50000    1.81     1.83   0.85254  0.7268   1.18039
 1.55000    1.81     1.83   0.85533  0.7264   1.17866
 1.60000    1.81     1.83   0.85821  0.7263   1.17930
 1.65000    1.81     1.83   0.86031  0.7259   1.17893
 1.70000    1.81     1.83   0.86270  0.7263   1.17843
 1.75000    1.81     1.83   0.86477  0.7262   1.17946
 1.80000    1.81     1.83   0.86652  0.7262   1.17689
 1.85000    1.81     1.83   0.86817  0.7261   1.17892
 1.90000    1.81     1.83   0.86920  0.7258   1.17918
 1.95000    1.81     1.83   0.87041  0.7260   1.17832
 2.00000    1.81     1.83   0.87158  0.7259   1.17825
 2.05000    1.81     1.83   0.87255  0.7263   1.17909
 2.10000    1.81     1.83   0.87349  0.7261   1.17793
 2.15000    1.81     1.83   0.87459  0.7262   1.17859
 2.20000    1.81     1.83   0.87531  0.7263   1.17888
 2.25000    1.81     1.83   0.87613  0.7264   1.17866
 2.30000    1.81     1.83   0.87718  0.7264   1.18033
 2.35000    1.81     1.83   0.87711  0.7264   1.17793
 2.40000    1.81     1.83   0.87800  0.7262   1.17850
 2.45000    1.81     1.83   0.87885  0.7267   1.17836
 2.50000    1.81     1.83   0.87897  0.7268   1.17700
 2.55000    1.81     1.83   0.87954  0.7268   1.17847
 2.60000    1.81     1.83   0.88032  0.7270   1.17925
 2.65000    1.81     1.84   0.88027  0.7268   1.17792
 2.70000    1.81     1.84   0.88108  0.7270   1.17906
 2.75000    1.81     1.84   0.88126  0.7269   1.17886
 2.80000    1.81     1.84   0.88170  0.7272   1.18016
 2.85000    1.81     1.84   0.88192  0.7272   1.17944
 2.90000    1.81     1.84   0.88235  0.7271   1.18054
 2.95000    1.81     1.84   0.88254  0.7273   1.17965
 3.00000    1.81     1.84   0.88305  0.7272   1.17880
 3.05000    1.81     1.84   0.88310  0.7272   1.17693
 3.10000    1.81     1.84   0.88315  0.7274   1.17978
 3.15000    1.81     1.84   0.88353  0.7274   1.17944
 3.20000    1.81     1.84   0.88391  0.7274   1.17848
 3.25000    1.81     1.84   0.88381  0.7275   1.17969
 3.30000    1.81     1.84   0.88360  0.7277   1.17805
 3.35000    1.81     1.84   0.88378  0.7275   1.17879
 3.40000    1.81     1.84   0.88427  0.7275   1.17810
 3.45000    1.81     1.84   0.88425  0.7278   1.17897
 3.50000    1.81     1.84   0.88420  0.7279   1.17853
 3.55000    1.81     1.84   0.88495  0.7280   1.17969
 3.60000    1.81     1.84   0.88475  0.7279   1.17907
 3.65000    1.81     1.84   0.88502  0.7281   1.17961
 3.70000    1.81     1.84   0.88467  0.7279   1.17897
 3.75000    1.81     1.84   0.88491  0.7280   1.17821
 3.80000    1.81     1.84   0.88513  0.7278   1.17729
 3.85000    1.81     1.85   0.88524  0.7279   1.17875
 3.90000    1.81     1.85   0.88536  0.7281   1.17973
 3.95000    1.81     1.85   0.88512  0.7280   1.17669
 4.00000    1.81     1.85   0.88501  0.7280   1.17914
 4.00000    1.82     1.85   0.88525  0.7281   1.17792
 3.95000    1.82     1.85   0.88531  0.7282   1.17773
 3.90000    1.82     1.85   0.88513  0.7282   1.17833
 3.85000    1.82     1.85   0.88534  0.7280   1.17944
 3.80000    1.81     1.85   0.88473  0.7279   1.17846
 3.75000    1.81     1.84   0.88492  0.7277   1.17750
 3.70000    1.81     1.84   0.88477  0.7279   1.17784
 3.65000    1.81     1.84   0.88485  0.7277   1.17900
 3.60000    1.81     1.84   0.88465  0.7277   1.17910
 3.55000    1.81     1.84   0.88444  0.7280   1.17807
 3.50000    1.81     1.84   0.88419  0.7279   1.17679
 3.45000    1.81     1.84   0.88456  0.7276   1.17889
 3.40000    1.81     1.84   0.88395  0.7275   1.17998
 3.35000    1.81     1.84   0.88392  0.7275   1.17762
 3.30000    1.81     1.84   0.88386  0.7275   1.17716
 3.25000    1.81     1.84   0.88359  0.7275   1.17896
 3.20000    1.81     1.84   0.88352  0.7273   1.17731
 3.15000    1.81     1.84   0.88333  0.7273   1.17809
 3.10000    1.81     1.84   0.88331  0.7274   1.17705
 3.05000    1.81     1.84   0.88308  0.7272   1.17765
 3.00000    1.81     1.84   0.88273  0.7270   1.17764
 2.95000    1.81     1.84   0.88243  0.7271   1.17686
 2.90000    1.81     1.83   0.88192  0.7271   1.17901
 2.85000    1.81     1.83   0.88162  0.7271   1.17704
 2.80000    1.81     1.83   0.88136  0.7269   1.18013
 2.75000    1.81     1.83   0.88070  0.7267   1.17673
 2.70000    1.81     1.83   0.88057  0.7267   1.17791
 2.65000    1.81     1.83   0.88038  0.7268   1.17733
 2.60000    1.81     1.83   0.87968  0.7267   1.17851
 2.55000    1.81     1.83   0.87950  0.7266   1.17839
 2.50000    1.81     1.83   0.87878  0.7266   1.17739
 2.45000    1.81     1.83   0.87830  0.7262   1.17806
 2.40000    1.80     1.83   0.87749  0.7263   1.17851
 2.35000    1.80     1.83   0.87702  0.7264   1.17561
 2.30000    1.80     1.83   0.87598  0.7264   1.17868
 2.25000    1.80     1.83   0.87572  0.7261   1.17716
 2.20000    1.80     1.83   0.87473  0.7260   1.17605
 2.15000    1.80     1.83   0.87403  0.7263   1.17689
 2.10000    1.80     1.83   0.87314  0.7263   1.17566
 2.05000    1.80     1.83   0.87227  0.7261   1.17829
 2.00000    1.80     1.82   0.87104  0.7261   1.17886
 1.95000    1.80     1.82   0.86998  0.7261   1.17801
 1.90000    1.80     1.82   0.86857  0.7261   1.17788
 1.85000    1.80     1.82   0.86703  0.7258   1.17901
 1.80000    1.80     1.82   0.86576  0.7261   1.17597
 1.75000    1.80     1.82   0.86377  0.7258   1.17759
 1.70000    1.80     1.82   0.86203  0.7259   1.17707
 1.65000    1.80     1.82   0.86003  0.7262   1.17748
 1.60000    1.80     1.82   0.85754  0.7263   1.17670
 1.55000    1.80     1.82   0.85459  0.7267   1.17690
 1.50000    1.80     1.82   0.85199  0.7271   1.17582
 1.45000    1.80     1.82   0.84904  0.7274   1.17725
 1.40000    1.80     1.82   0.84604  0.7279   1.17635
 1.35000    1.80     1.82   0.84354  0.7286   1.17605
 1.30000    1.80     1.82   0.84123  0.7296   1.17607
 1.25000    1.80     1.82   0.83943  0.7307   1.17704
 1.20000    1.80     1.82   0.83856  0.7319   1.17675
 1.15000    1.80     1.82   0.83836  0.7332   1.17840
 1.10000    1.80     1.82   0.84045  0.7349   1.17807
 1.05000    1.80     1.82   0.84427  0.7363   1.17746
 1.00000    1.80     1.82   0.84874  0.7369   1.17659
 0.95000    1.80     1.82   0.85383  0.7375   1.17761
 0.90000    1.80     1.82   0.85853  0.7380   1.17712
 0.85000    1.80     1.82   0.86235  0.7378   1.17834
 0.80000    1.80     1.82   0.86597  0.7375   1.17639
 0.75000    1.80     1.82   0.86824  0.7374   1.17771
 0.70000    1.80     1.82   0.86972  0.7370   1.17764
 0.65000    1.80     1.82   0.87105  0.7370   1.17831
 0.60000    1.80     1.82   0.87197  0.7369   1.17931
 0.55000    1.80     1.82   0.87262  0.7365   1.17796
 0.50000    1.80     1.82   0.87359  0.7368   1.17968
 0.45000    1.80     1.82   0.87389  0.7368   1.17734
 0.40000    1.80     1.82   0.87415  0.7366   1.17556
 0.35000    1.80     1.82   0.87426  0.7365   1.17670
 0.30000    1.80     1.82   0.87488  0.7366   1.17700
 0.25000    1.80     1.82   0.87504  0.7365   1.17771
 0.20000    1.80     1.82   0.87519  0.7364   1.17727
 0.15000    1.80     1.82   0.87523  0.7365   1.17596
 0.10000    1.80     1.82   0.87543  0.7366   1.17772
 0.05000    1.80     1.82   0.87532  0.7368   1.17793
-0.00000    1.80     1.82   0.87511  0.7366   1.17666
-0.05000    1.80     1.82   0.87509  0.7366   1.17656
-0.10000    1.80     1.81   0.87508  0.7367   1.17747
-0.15000    1.80     1.81   0.87549  0.7366   1.17616
-0.20000    1.80     1.81   0.87505  0.7368   1.17744
-0.25000    1.80     1.81   0.87509  0.7368   1.17817
-0.30000    1.80     1.81   0.87473  0.7369   1.17647
-0.35000    1.80     1.81   0.87482  0.7368   1.17934
-0.40000    1.80     1.81   0.87467  0.7367   1.17753
-0.45000    1.80     1.81   0.87462  0.7367   1.17803
-0.50000    1.80     1.81   0.87397  0.7368   1.17643
-0.55000    1.80     1.81   0.87330  0.7369   1.17676
-0.60000    1.80     1.82   0.87321  0.7369   1.17854
-0.65000    1.80     1.82   0.87232  0.7369   1.17742
-0.70000    1.80     1.82   0.87108  0.7375   1.17840
-0.75000    1.80     1.82   0.86941  0.7375   1.17782
-0.80000    1.80     1.82   0.86789  0.7376   1.17881
-0.85000    1.80     1.82   0.86477  0.7379   1.17671
-0.90000    1.80     1.82   0.86079  0.7379   1.17621
-0.95000    1.80     1.82   0.85614  0.7377   1.17709
-1.00000    1.80     1.82   0.85116  0.7373   1.17809
-1.05000    1.80     1.82   0.84629  0.7365   1.17474
-1.10000    1.80     1.82   0.84293  0.7350   1.17602
-1.15000    1.80     1.82   0.84141  0.7338   1.17777
-1.20000    1.80     1.82   0.84132  0.7321   1.17626
-1.25000    1.80     1.82   0.84238  0.7309   1.17593
-1.30000    1.80     1.82   0.84488  0.7298   1.17640
-1.35000    1.80     1.82   0.84770  0.7290   1.17622
-1.40000    1.80     1.82   0.85006  0.7284   1.17714
-1.45000    1.80     1.82   0.85335  0.7276   1.17592
-1.50000    1.80     1.82   0.85629  0.7271   1.17584
-1.55000    1.80     1.82   0.85914  0.7268   1.17651
-1.60000    1.80     1.82   0.86214  0.7267   1.17617
-1.65000    1.80     1.82   0.86536  0.7262   1.17720
-1.70000    1.80     1.82   0.86766  0.7259   1.17831
-1.75000    1.80     1.82   0.86968  0.7262   1.17642
-1.80000    1.80     1.82   0.87169  0.7263   1.17607
-1.85000    1.80     1.82   0.87294  0.7262   1.17449
-1.90000    1.80     1.82   0.87486  0.7264   1.17673
-1.95000    1.80     1.82   0.87649  0.7263   1.17666
-2.00000    1.80     1.82   0.87780  0.7263   1.17536
-2.05000    1.80     1.82   0.87944  0.7264   1.17661
-2.10000    1.80     1.82   0.88064  0.7264   1.17629
-2.15000    1.80     1.82   0.88156  0.7267   1.17673
-2.20000    1.80     1.82   0.88291  0.7267   1.17733
-2.25000    1.80     1.82   0.88397  0.7266   1.17744
-2.30000    1.80     1.82   0.88497  0.7266   1.17496
-2.35000    1.80     1.83   0.88546  0.7268   1.17652
-2.40000    1.80     1.83   0.88625  0.7266   1.17580
-2.45000    1.80     1.83   0.88727  0.7268   1.17602
-2.50000    1.80     1.83   0.88777  0.7269   1.17701
-2.55000    1.80     1.83   0.88887  0.7270   1.17647
-2.60000    1.80     1.83   0.88963  0.7270   1.17656
-2.65000    1.80     1.83   0.89038  0.7270   1.17717
-2.70000    1.80     1.83   0.89098  0.7271   1.17481
-2.75000    1.80     1.83   0.89171  0.7271   1.17641
-2.80000    1.80     1.83   0.89199  0.7271   1.17793
-2.85000    1.80     1.83   0.89277  0.7273   1.17635
-2.90000    1.80     1.83   0.89317  0.7274   1.17602
-2.95000    1.80     1.83   0.89397  0.7273   1.17663
-3.00000    1.80     1.83   0.89437  0.7275   1.17731
-3.05000    1.80     1.83   0.89486  0.7277   1.17468
-3.10000    1.80     1.83   0.89552  0.7275   1.17624
-3.15000    1.80     1.83   0.89543  0.7276   1.17560
-3.20000    1.80     1.83   0.89647  0.7278   1.17598
-3.25000    1.80     1.83   0.89664  0.7278   1.17690
-3.30000    1.80     1.83   0.89704  0.7279   1.17642
-3.35000    1.80     1.83   0.89766  0.7279   1.17648
-3.40000    1.80     1.83   0.89784  0.7280   1.17581
-3.45000    1.81     1.83   0.89832  0.7282   1.17590
-3.50000    1.81     1.83   0.89871  0.7281   1.17714
-3.55000    1.81     1.84   0.89887  0.7278   1.17461
-3.60000    1.81     1.84   0.89956  0.7279   1.17641
-3.65000    1.81     1.84   0.89987  0.7282   1.17671
-3.70000    1.81     1.84   0.90006  0.7282   1.17441
-3.75000    1.81     1.84   0.90051  0.7279   1.17640
-3.80000    1.81     1.84   0.90101  0.7282   1.17649
-3.85000    1.81     1.84   0.90131  0.7281   1.17494
-3.90000    1.81     1.84   0.90147  0.7281   1.17505
-3.95000    1.81     1.84   0.90185  0.7283   1.17403
-4.00000    1.81     1.84   0.90192  0.7283   1.17644
-4.00000    1.81     1.84   0.90216  0.7283   1.17561
-3.95000    1.81     1.84   0.90189  0.7284   1.17547
-3.90000    1.81     1.84   0.90163  0.7281   1.17652
-3.85000    1.81     1.84   0.90143  0.7282   1.17549
-3.80000    1.81     1.84   0.90115  0.7284   1.17508
-3.75000    1.81     1.84   0.90043  0.7283   1.17435
-3.70000    1.81     1.84   0.90091  0.7281   1.17497
-3.65000    1.81     1.84   0.90046  0.7283   1.17741
-3.60000    1.81     1.84   0.89998  0.7281   1.17524
-3.55000    1.81     1.84   0.89934  0.7280   1.17565
-3.50000    1.81     1.84   0.89910  0.7278   1.17470
-3.45000    1.81     1.84   0.89874  0.7276   1.17346
-3.40000    1.81     1.84   0.89845  0.7276   1.17512
-3.35000    1.81     1.84   0.89823  0.7275   1.17389
-3.30000    1.80     1.84   0.89774  0.7274   1.17537
-3.25000    1.80     1.83   0.89751  0.7275   1.17543
-3.20000    1.80     1.83   0.89713  0.7274   1.17536
-3.15000    1.80     1.83   0.89685  0.7276   1.17708
-3.10000    1.80     1.83   0.89588  0.7276   1.17589
-3.05000    1.80     1.83   0.89527  0.7275   1.17410
-3.00000    1.80     1.83   0.89528  0.7273   1.17570
-2.95000    1.80     1.83   0.89463  0.7274   1.17413
-2.90000    1.80     1.83   0.89437  0.7272   1.17481
-2.85000    1.80     1.83   0.89361  0.7270   1.17610
-2.80000    1.80     1.83   0.89322  0.7271   1.17587
-2.75000    1.80     1.83   0.89237  0.7272   1.17560
-2.70000    1.80     1.83   0.89193  0.7266   1.17537
-2.65000    1.80     1.83   0.89115  0.7266   1.17607
-2.60000    1.80     1.83   0.89058  0.7270   1.17604
-2.55000    1.80     1.83   0.88968  0.7269   1.17545
-2.50000    1.80     1.83   0.88938  0.7269   1.17516
-2.45000    1.80     1.83   0.88843  0.7266   1.17719
-2.40000    1.80     1.83   0.88739  0.7263   1.17668
-2.35000    1.80     1.83   0.88651  0.7266   1.17594
-2.30000    1.80     1.82   0.88591  0.7264   1.17353
-2.25000    1.80     1.82   0.88486  0.7263   1.17569
-2.20000    1.80     1.82   0.88354  0.7265   1.17531
-2.15000    1.80     1.82   0.88297  0.7265   1.17617
-2.10000    1.80     1.82   0.88161  0.7265   1.17609
-2.05000    1.80     1.82   0.88040  0.7262   1.17512
-2.00000    1.80     1.82   0.87901  0.7263   1.17421
-1.95000    1.80     1.82   0.87767  0.7263   1.17545
-1.90000    1.80     1.82   0.87618  0.7262   1.17562
-1.85000    1.80     1.82   0.87449  0.7263   1.17560
-1.80000    1.80     1.82   0.87302  0.7262   1.17586
-1.75000    1.80     1.82   0.87049  0.7264   1.17541
-1.70000    1.80     1.82   0.86875  0.7264   1.17593
-1.65000    1.80     1.82   0.86656  0.7263   1.17643
-1.60000    1.80     1.82   0.86364  0.7264   1.17621
-1.55000    1.80     1.82   0.86083  0.7269   1.17671
-1.50000    1.80     1.82   0.85743  0.7269   1.17517
-1.45000    1.80     1.82   0.85432  0.7273   1.17653
-1.40000    1.80     1.82   0.85112  0.7278   1.17758
-1.35000    1.80     1.82   0.84858  0.7292   1.17661
-1.30000    1.80     1.82   0.84567  0.7297   1.17771
-1.25000    1.80     1.82   0.84354  0.7307   1.17592
-1.20000    1.80     1.82   0.84222  0.7322   1.17664
-1.15000    1.79     1.82   0.84175  0.7336   1.17497
-1.10000    1.79     1.81   0.84312  0.7351   1.17581
-1.05000    1.79     1.81   0.84689  0.7362   1.17706
-1.00000    1.79     1.81   0.85149  0.7372   1.17617
-0.95000    1.79     1.81   0.85640  0.7379   1.17610
-0.90000    1.79     1.81   0.86057  0.7382   1.17633
-0.85000    1.79     1.81   0.86465  0.7379   1.17555
-0.80000    1.79     1.81   0.86772  0.7376   1.17610
-0.75000    1.79     1.81   0.86942  0.7376   1.17570
-0.70000    1.79     1.81   0.87061  0.7375   1.17434
-0.65000    1.79     1.81   0.87151  0.7372   1.17438
-0.60000    1.79     1.81   0.87236  0.7372   1.17492
-0.55000    1.79     1.81   0.87312  0.7372   1.17527
-0.50000    1.79     1.81   0.87315  0.7370   1.17506
-0.45000    1.79     1.81   0.87369  0.7369   1.17499
-0.40000    1.79     1.81   0.87363  0.7369   1.17300
-0.35000    1.79     1.81   0.87410  0.7370   1.17486
-0.30000    1.79     1.81   0.87413  0.7371   1.17549
-0.25000    1.79     1.81   0.87425  0.7371   1.17521
-0.20000    1.79     1.81   0.87403  0.7370   1.17383
-0.15000    1.79     1.81   0.87389  0.7368   1.17558
-0.10000    1.79     1.81   0.87367  0.7367   1.17490
-0.05000    1.79     1.81   0.87358  0.7368   1.17423
 0.00000    1.79     1.81   0.87349  0.7367   1.17513
