 Field[T] Tsmpl[K] Tcntr[K] Signal Mirror[MM] RefSignal
 0.00000    1.77     1.79   0.78413  3.0768   1.25592
 0.05000    1.77     1.79   0.78431  3.0765   1.25222
 0.10000    1.77     1.79   0.78344  3.0765   1.25406
 0.15000    1.77     1.79   0.78155  3.0766   1.25510
 0.20000    1.77     1.79   0.77807  3.0767   1.25537
 0.25000    1.77     1.79   0.77447  3.0766   1.25468
 0.30000    1.77     1.79   0.76808  3.0768   1.25267
 0.35000    1.77     1.79   0.76097  3.0769   1.25677
 0.40000    1.77     1.79   0.75176  3.0774   1.25597
 0.45000    1.77     1.79   0.73897  3.0781   1.25572
 0.50000    1.77     1.79   0.72315  3.0782   1.25485
 0.55000    1.77     1.79   0.70014  3.0777   1.25494
 0.60000    1.77     1.79   0.67077  3.0731   1.25653
 0.65000    1.77     1.79   0.64661  3.0637   1.25584
 0.70000    1.77     1.79   0.63035  3.0508   1.25590
 0.75000    1.77     1.79   0.62624  3.0365   1.25578
 0.80000    1.77     1.79   0.63255  3.0233   1.25737
 0.85000    1.77     1.79   0.64387  3.0129   1.25482
 0.90000    1.77     1.79   0.65890  3.0049   1.25424
 0.95000    1.77     1.79   0.67651  2.9982   1.25433
 1.00000    1.77     1.79   0.69594  2.9936   1.25600
 1.05000    1.77     1.79   0.71562  2.9911   1.25656
 1.10000    1.77     1.79   0.73288  2.9900   1.25599
 1.15000    1.77     1.79   0.74960  2.9900   1.25492
 1.20000    1.77     1.79   0.76259  2.9907   1.25344
 1.25000    1.77     1.79   0.77431  2.9919   1.25441
 1.30000    1.77     1.79   0.78276  2.9932   1.25293
 1.35000    1.77     1.80   0.78936  2.9942   1.25817
 1.40000    1.78     1.80   0.79470  2.9955   1.25550
 1.45000    1.78     1.80   0.79842  2.9967   1.25539
 1.50000    1.78     1.80   0.80275  2.9976   1.25548
 1.55000    1.78     1.80   0.80535  2.9985   1.25675
 1.60000    1.78     1.80   0.80736  2.9994   1.25732
 1.65000    1.78     1.80   0.81029  2.9997   1.25599
 1.70000    1.78     1.80   0.81213  3.0006   1.25706
 1.75000    1.78     1.80   0.81446  3.0016   1.25523
 1.80000    1.78     1.80   0.81607  3.0016   1.25566
 1.85000    1.78     1.80   0.81814  3.0019   1.25585
 1.90000    1.78     1.80   0.81976  3.0021   1.25547
 1.95000    1.78     1.80   0.82085  3.0024   1.25446
 2.00000    1.78     1.80   0.82185  3.0027   1.25631
 2.05000    1.78     1.80   0.82297  3.0032   1.25670
 2.10000    1.78     1.80   0.82338  3.0034   1.25630
 2.15000    1.78     1.80   0.82387  3.0036   1.25704
 2.20000    1.78     1.80   0.82490  3.0036   1.25696
 2.25000    1.78     1.80   0.82630  3.0040   1.25661
 2.30000    1.78     1.80   0.82644  3.0039   1.25558
 2.35000    1.78     1.81   0.82711  3.0042   1.25732
 2.40000    1.78     1.81   0.82750  3.0044   1.25621
 2.45000    1.78     1.81   0.82863  3.0041   1.25719
 2.50000    1.78     1.81   0.82861  3.0043   1.25701
 2.55000    1.78     1.81   0.82868  3.0047   1.25517
 2.60000    1.78     1.81   0.82944  3.0044   1.25680
 2.65000    1.78     1.81   0.82979  3.0047   1.25736
 2.70000    1.78     1.81   0.83031  3.0048   1.25677
 2.75000    1.78     1.81   0.83112  3.0047   1.25605
 2.80000    1.78     1.81   0.83108  3.0049   1.25862
 2.85000    1.78     1.81   0.83121  3.0048   1.25605
 2.90000    1.78     1.81   0.83106  3.0052   1.25542
 2.95000    1.78     1.81   0.83138  3.0055   1.25624
 3.00000    1.78     1.81   0.83202  3.0050   1.25484
 3.05000    1.78     1.81   0.83271  3.0052   1.25655
 3.10000    1.78     1.81   0.83193  3.0051   1.25412
 3.15000    1.78     1.81   0.83256  3.0052   1.25578
 3.20000    1.78     1.81   0.83264  3.0051   1.25776
 3.25000    1.78     1.81   0.83269  3.0055   1.25850
 3.30000    1.78     1.81   0.83357  3.0054   1.25811
 3.35000    1.78     1.81   0.83334  3.0050   1.25873
 3.40000    1.78     1.81   0.83320  3.0053   1.25662
 3.45000    1.78     1.81   0.83366  3.0054   1.25749
 3.50000    1.78     1.81   0.83439  3.0059   1.25677
 3.55000    1.78     1.81   0.83445  3.0059   1.25833
 3.60000    1.78     1.81   0.83477  3.0058   1.25786
 3.65000    1.78     1.81   0.83449  3.0056   1.25671
 3.70000    1.78     1.81   0.83480  3.0054   1.25804
 3.75000    1.78     1.81   0.83449  3.0053   1.25823
 3.80000    1.78     1.81   0.83521  3.0057   1.25814
 3.85000    1.78     1.81   0.83451  3.0056   1.25588
 3.90000    1.78     1.81   0.83501  3.0056   1.25710
 3.95000    1.78     1.81   0.83561  3.0056   1.25753
 4.00000    1.78     1.81   0.83513  3.0056   1.25772
 4.00000    1.78     1.81   0.83522  3.0056   1.25616
 3.95000    1.78     1.81   0.83494  3.0054   1.26017
 3.90000    1.78     1.81   0.83524  3.0051   1.25695
 3.85000    1.78     1.81   0.83517  3.0050   1.25689
 3.80000    1.78     1.81   0.83556  3.0051   1.25867
 3.75000    1.78     1.81   0.83541  3.0049   1.25848
 3.70000    1.78     1.81   0.83552  3.0045   1.25270
 3.65000    1.78     1.81   0.83547  3.0046   1.25573
 3.60000    1.78     1.81   0.83504  3.0048   1.25897
 3.55000    1.78     1.81   0.83558  3.0047   1.25616
 3.50000    1.77     1.80   0.83555  3.0045   1.25539
 3.45000    1.77     1.80   0.83635  3.0042   1.25717
 3.40000    1.77     1.80   0.83602  3.0042   1.25699
 3.35000    1.77     1.80   0.83563  3.0041   1.25682
 3.30000    1.77     1.80   0.83623  3.0037   1.25745
 3.25000    1.77     1.80   0.83715  3.0038   1.25901
 3.20000    1.77     1.80   0.83636  3.0035   1.25781
 3.15000    1.77     1.80   0.83658  3.0036   1.25954
 3.10000    1.77     1.80   0.83587  3.0036   1.25830
 3.05000    1.77     1.80   0.83571  3.0033   1.25879
 3.00000    1.77     1.80   0.83599  3.0033   1.25846
 2.95000    1.77     1.80   0.83519  3.0033   1.25750
 2.90000    1.77     1.80   0.83568  3.0030   1.25851
 2.85000    1.77     1.80   0.83544  3.0027   1.25792
 2.80000    1.77     1.80   0.83537  3.0022   1.25888
 2.75000    1.77     1.80   0.83548  3.0023   1.25827
 2.70000    1.77     1.80   0.83555  3.0022   1.25860
 2.65000    1.77     1.80   0.83523  3.0018   1.25931
 2.60000    1.77     1.80   0.83455  3.0017   1.25961
 2.55000    1.77     1.80   0.83457  3.0013   1.26243
 2.50000    1.77     1.79   0.83418  3.0012   1.25873
 2.45000    1.77     1.79   0.83402  3.0014   1.26132
 2.40000    1.77     1.79   0.83368  3.0013   1.25865
 2.35000    1.77     1.79   0.83308  3.0009   1.26089
 2.30000    1.77     1.79   0.83276  3.0012   1.25871
 2.25000    1.77     1.79   0.83174  3.0008   1.25934
 2.20000    1.77     1.79   0.83118  3.0004   1.25880
 2.15000    1.77     1.79   0.83018  2.9999   1.26051
 2.10000    1.77     1.79   0.82994  2.9995   1.25950
 2.05000    1.77     1.79   0.82862  2.9993   1.26274
 2.00000    1.77     1.79   0.82764  2.9993   1.25828
 1.95000    1.77     1.79   0.82730  2.9989   1.25944
 1.90000    1.77     1.79   0.82607  2.9984   1.25991
 1.85000    1.76     1.79   0.82447  2.9978   1.25926
 1.80000    1.76     1.79   0.82420  2.9969   1.26060
 1.75000    1.76     1.79   0.82244  2.9970   1.26058
 1.70000    1.76     1.79   0.82073  2.9961   1.26020
 1.65000    1.76     1.79   0.81878  2.9963   1.25950
 1.60000    1.76     1.79   0.81680  2.9956   1.25847
 1.55000    1.76     1.79   0.81421  2.9943   1.25938
 1.50000    1.76     1.79   0.81109  2.9940   1.25905
 1.45000    1.76     1.79   0.80741  2.9926   1.25938
 1.40000    1.76     1.79   0.80282  2.9918   1.26023
 1.35000    1.76     1.78   0.79714  2.9906   1.25939
 1.30000    1.76     1.78   0.79118  2.9894   1.26055
 1.25000    1.76     1.78   0.78202  2.9876   1.25980
 1.20000    1.76     1.78   0.77124  2.9868   1.25937
 1.15000    1.76     1.78   0.75780  2.9858   1.26194
 1.10000    1.76     1.78   0.74143  2.9855   1.25923
 1.05000    1.76     1.78   0.72383  2.9863   1.26184
 1.00000    1.76     1.78   0.70474  2.9881   1.25829
 0.95000    1.76     1.78   0.68462  2.9926   1.26305
 0.90000    1.76     1.78   0.66695  2.9984   1.26139
 0.85000    1.76     1.78   0.65099  3.0069   1.26075
 0.80000    1.76     1.78   0.63941  3.0167   1.25985
 0.75000    1.76     1.78   0.63223  3.0290   1.26177
 0.70000    1.76     1.78   0.63443  3.0435   1.26095
 0.65000    1.76     1.78   0.64951  3.0566   1.26115
 0.60000    1.76     1.78   0.67256  3.0668   1.25969
 0.55000    1.76     1.78   0.70180  3.0729   1.25965
 0.50000    1.76     1.78   0.72684  3.0735   1.26020
 0.45000    1.76     1.78   0.74380  3.0731   1.26049
 0.40000    1.76     1.78   0.75663  3.0723   1.26197
 0.35000    1.76     1.78   0.76667  3.0718   1.26113
 0.30000    1.76     1.78   0.77394  3.0717   1.26131
 0.25000    1.76     1.78   0.77987  3.0717   1.26246
 0.20000    1.76     1.78   0.78465  3.0717   1.26093
 0.15000    1.76     1.78   0.78776  3.0714   1.26239
 0.10000    1.76     1.78   0.78913  3.0718   1.26040
 0.05000    1.76     1.78   0.79146  3.0715   1.26097
-0.00000    1.76     1.78   0.79170  3.0718   1.26057
