 Field[T] Tsmpl[K] Tcntr[K] Signal Mirror[MM] RefSignal
 0.00000    1.78     1.80   1.15009  3.9988   4.42810
 0.05000    1.78     1.80   1.15196  3.9986   4.42924
 0.10000    1.78     1.80   1.15247  3.9985   4.43089
 0.15000    1.78     1.80   1.15207  3.9984   4.43234
 0.20000    1.78     1.80   1.15141  3.9984   4.43200
 0.25000    1.78     1.80   1.15016  3.9986   4.43309
 0.30000    1.78     1.80   1.14903  3.9988   4.43168
 0.35000    1.78     1.80   1.14674  3.9987   4.43605
 0.40000    1.78     1.80   1.14336  3.9990   4.43759
 0.45000    1.78     1.81   1.14062  3.9995   4.43922
 0.50000    1.78     1.81   1.13655  3.9999   4.44272
 0.55000    1.78     1.81   1.13023  4.0005   4.44269
 0.60000    1.78     1.81   1.12287  4.0015   4.44420
 0.65000    1.78     1.81   1.11264  4.0031   4.44784
 0.70000    1.78     1.81   1.09872  4.0051   4.44862
 0.75000    1.78     1.81   1.07490  4.0067   4.45007
 0.80000    1.78     1.81   1.04173  4.0065   4.44980
 0.85000    1.78     1.81   1.01045  4.0042   4.44996
 0.90000    1.78     1.81   0.98358  3.9997   4.44931
 0.95000    1.78     1.81   0.96374  3.9935   4.45251
 1.00000    1.79     1.81   0.95539  3.9866   4.45396
 1.05000    1.79     1.81   0.95615  3.9801   4.45329
 1.10000    1.79     1.81   0.96157  3.9744   4.45330
 1.15000    1.79     1.81   0.97172  3.9699   4.45441
 1.20000    1.79     1.81   0.98527  3.9663   4.45266
 1.25000    1.79     1.81   1.00029  3.9637   4.45382
 1.30000    1.79     1.81   1.01356  3.9621   4.45632
 1.35000    1.79     1.81   1.02648  3.9612   4.45763
 1.40000    1.79     1.81   1.03764  3.9605   4.45665
 1.45000    1.79     1.81   1.04811  3.9604   4.45815
 1.50000    1.79     1.82   1.05757  3.9604   4.45933
 1.55000    1.79     1.82   1.06388  3.9603   4.45703
 1.60000    1.79     1.82   1.07017  3.9605   4.45802
 1.65000    1.79     1.82   1.07487  3.9610   4.46155
 1.70000    1.79     1.82   1.07829  3.9611   4.45976
 1.75000    1.79     1.82   1.08171  3.9611   4.46253
 1.80000    1.79     1.82   1.08492  3.9615   4.46223
 1.85000    1.79     1.82   1.08805  3.9614   4.46173
 1.90000    1.79     1.82   1.09041  3.9617   4.46350
 1.95000    1.79     1.82   1.09241  3.9620   4.46377
 2.00000    1.79     1.82   1.09450  3.9620   4.46155
 2.05000    1.79     1.82   1.09544  3.9619   4.46118
 2.10000    1.79     1.82   1.09726  3.9623   4.46441
 2.15000    1.79     1.82   1.09924  3.9624   4.46297
 2.20000    1.79     1.82   1.10016  3.9622   4.46516
 2.25000    1.79     1.82   1.10197  3.9625   4.46431
 2.30000    1.79     1.82   1.10368  3.9626   4.46534
 2.35000    1.79     1.82   1.10483  3.9624   4.46322
 2.40000    1.79     1.82   1.10553  3.9627   4.46591
 2.45000    1.79     1.82   1.10673  3.9626   4.46964
 2.50000    1.79     1.82   1.10767  3.9630   4.46380
 2.55000    1.79     1.82   1.10884  3.9627   4.46287
 2.60000    1.79     1.82   1.10970  3.9629   4.46358
 2.65000    1.79     1.82   1.11180  3.9630   4.46879
 2.70000    1.79     1.82   1.11253  3.9635   4.46898
 2.75000    1.79     1.82   1.11237  3.9631   4.46776
 2.80000    1.79     1.82   1.11310  3.9629   4.46564
 2.85000    1.79     1.83   1.11473  3.9629   4.46600
 2.90000    1.79     1.83   1.11524  3.9629   4.46856
 2.95000    1.79     1.83   1.11579  3.9633   4.46879
 3.00000    1.79     1.83   1.11671  3.9634   4.46809
 3.05000    1.79     1.83   1.11748  3.9633   4.46945
 3.10000    1.79     1.83   1.11686  3.9634   4.46758
 3.15000    1.79     1.83   1.11781  3.9638   4.47023
 3.20000    1.79     1.83   1.11912  3.9637   4.47184
 3.25000    1.79     1.83   1.11995  3.9634   4.46719
 3.30000    1.79     1.83   1.12019  3.9635   4.47337
 3.35000    1.79     1.83   1.12128  3.9637   4.46903
 3.40000    1.79     1.83   1.12203  3.9636   4.47384
 3.45000    1.79     1.83   1.12209  3.9641   4.47058
 3.50000    1.79     1.83   1.12194  3.9640   4.47457
 3.55000    1.79     1.83   1.12323  3.9641   4.47334
 3.60000    1.79     1.83   1.12361  3.9640   4.47234
 3.65000    1.79     1.83   1.12343  3.9645   4.47631
 3.70000    1.79     1.83   1.12442  3.9642   4.47230
 3.75000    1.79     1.83   1.12415  3.9644   4.47504
 3.80000    1.79     1.83   1.12460  3.9642   4.47541
 3.85000    1.79     1.83   1.12596  3.9647   4.47566
 3.90000    1.79     1.83   1.12590  3.9644   4.47407
 3.95000    1.79     1.83   1.12645  3.9647   4.47378
 4.00000    1.79     1.83   1.12738  3.9650   4.47544
 4.00000    1.79     1.83   1.12664  3.9651   4.47540
 3.95000    1.79     1.83   1.12685  3.9649   4.47295
 3.90000    1.79     1.83   1.12691  3.9649   4.47699
 3.85000    1.79     1.83   1.12783  3.9649   4.47444
 3.80000    1.79     1.83   1.12720  3.9648   4.47566
 3.75000    1.79     1.83   1.12724  3.9648   4.47692
 3.70000    1.79     1.83   1.12801  3.9647   4.47607
 3.65000    1.79     1.83   1.12812  3.9646   4.47541
 3.60000    1.79     1.83   1.12866  3.9649   4.47812
 3.55000    1.79     1.82   1.12840  3.9649   4.47727
 3.50000    1.79     1.82   1.12844  3.9647   4.47632
 3.45000    1.79     1.82   1.12902  3.9648   4.47781
 3.40000    1.79     1.82   1.12906  3.9648   4.47842
 3.35000    1.79     1.82   1.12836  3.9648   4.47869
 3.30000    1.79     1.82   1.12822  3.9646   4.47958
 3.25000    1.78     1.82   1.12917  3.9645   4.47829
 3.20000    1.78     1.82   1.12861  3.9651   4.47889
 3.15000    1.78     1.82   1.12854  3.9646   4.47895
 3.10000    1.78     1.82   1.12818  3.9648   4.48053
 3.05000    1.78     1.81   1.12898  3.9646   4.47668
 3.00000    1.78     1.81   1.12849  3.9647   4.47914
 2.95000    1.78     1.81   1.12814  3.9647   4.48095
 2.90000    1.78     1.81   1.12905  3.9648   4.48059
 2.85000    1.78     1.81   1.12862  3.9646   4.48105
 2.80000    1.78     1.81   1.12827  3.9647   4.47973
 2.75000    1.78     1.81   1.12848  3.9647   4.48199
 2.70000    1.78     1.81   1.12804  3.9645   4.48555
 2.65000    1.78     1.81   1.12834  3.9644   4.48657
 2.60000    1.78     1.81   1.12831  3.9643   4.48548
 2.55000    1.78     1.81   1.12745  3.9640   4.48417
 2.50000    1.78     1.80   1.12796  3.9645   4.48296
 2.45000    1.77     1.80   1.12730  3.9643   4.48409
 2.40000    1.77     1.80   1.12581  3.9645   4.48274
 2.35000    1.77     1.80   1.12592  3.9643   4.48422
 2.30000    1.77     1.80   1.12497  3.9644   4.48525
 2.25000    1.77     1.80   1.12461  3.9641   4.48996
 2.20000    1.77     1.80   1.12433  3.9639   4.48457
 2.15000    1.77     1.80   1.12327  3.9636   4.48457
 2.10000    1.77     1.80   1.12279  3.9639   4.48374
 2.05000    1.77     1.80   1.12178  3.9636   4.48244
 2.00000    1.77     1.80   1.12109  3.9634   4.48573
 1.95000    1.77     1.80   1.12053  3.9633   4.48364
 1.90000    1.77     1.80   1.11841  3.9636   4.48373
 1.85000    1.77     1.80   1.11690  3.9631   4.48232
 1.80000    1.77     1.80   1.11510  3.9631   4.48390
 1.75000    1.77     1.80   1.11240  3.9630   4.48423
 1.70000    1.77     1.80   1.10914  3.9628   4.48533
 1.65000    1.77     1.80   1.10727  3.9623   4.48177
 1.60000    1.77     1.80   1.10276  3.9620   4.48316
 1.55000    1.77     1.80   1.09813  3.9622   4.48281
 1.50000    1.77     1.80   1.09129  3.9617   4.48714
 1.45000    1.77     1.79   1.08362  3.9620   4.48356
 1.40000    1.77     1.79   1.07443  3.9617   4.48394
 1.35000    1.77     1.79   1.06354  3.9622   4.48664
 1.30000    1.77     1.79   1.05169  3.9631   4.48719
 1.25000    1.77     1.79   1.03888  3.9644   4.48800
 1.20000    1.77     1.79   1.02491  3.9666   4.48804
 1.15000    1.77     1.79   1.01114  3.9698   4.48758
 1.10000    1.77     1.79   1.00115  3.9748   4.48889
 1.05000    1.77     1.79   0.99578  3.9800   4.48611
 1.00000    1.77     1.79   0.99529  3.9862   4.48557
 0.95000    1.77     1.79   1.00372  3.9929   4.48666
 0.90000    1.77     1.79   1.02364  3.9990   4.48795
 0.85000    1.77     1.79   1.05093  4.0036   4.48812
 0.80000    1.77     1.79   1.08298  4.0065   4.49079
 0.75000    1.77     1.79   1.11857  4.0068   4.48780
 0.70000    1.77     1.79   1.14601  4.0046   4.48881
 0.65000    1.77     1.79   1.16333  4.0028   4.48766
 0.60000    1.77     1.79   1.17484  4.0011   4.49070
 0.55000    1.77     1.79   1.18398  4.0002   4.49250
 0.50000    1.77     1.79   1.19109  3.9993   4.49139
 0.45000    1.77     1.79   1.19694  3.9984   4.49235
 0.40000    1.77     1.79   1.20271  3.9979   4.48986
 0.35000    1.77     1.79   1.20681  3.9976   4.49632
 0.30000    1.77     1.79   1.21013  3.9977   4.49116
 0.25000    1.77     1.79   1.21314  3.9975   4.49174
 0.20000    1.77     1.79   1.21665  3.9971   4.49218
 0.15000    1.77     1.79   1.21932  3.9972   4.49005
 0.10000    1.77     1.79   1.22128  3.9971   4.49308
 0.05000    1.77     1.79   1.22225  3.9968   4.49488
-0.00000    1.77     1.79   1.22289  3.9968   4.49482
