 Field[T] Tsmpl[K] Tcntr[K] Signal Mirror[MM] RefSignal
 0.00000    1.74     1.76   0.03714  3.6901   2.81472
 0.05000    1.74     1.76   0.03758  3.6888   2.81170
 0.10000    1.74     1.76   0.03829  3.6644   2.81461
 0.15000    1.74     1.76   0.03890  3.6458   2.81827
 0.20000    1.74     1.76   0.03901  3.6313   2.81900
 0.25000    1.74     1.76   0.03901  3.6227   2.80303
 0.30000    1.74     1.76   0.03943  3.6132   2.80641
 0.35000    1.74     1.76   0.03976  3.6052   2.81360
 0.40000    1.74     1.76   0.04016  3.5984   2.81495
 0.45000    1.74     1.76   0.04039  3.5977   2.81362
 0.50000    1.74     1.76   0.04077  3.5956   2.80825
 0.55000    1.74     1.76   0.04121  3.5923   2.80975
 0.60000    1.74     1.76   0.04152  3.5966   2.81115
 0.65000    1.74     1.76   0.04170  3.6001   2.80960
 0.70000    1.74     1.76   0.04183  3.6031   2.81613
 0.75000    1.74     1.76   0.04193  3.6040   2.81379
 0.80000    1.74     1.76   0.04196  3.6067   2.80942
 0.85000    1.74     1.76   0.04223  3.6082   2.81715
 0.90000    1.74     1.76   0.04218  3.6109   2.82184
 0.95000    1.74     1.76   0.04233  3.6112   2.80665
 1.00000    1.74     1.76   0.04247  3.6126   2.80986
 1.05000    1.74     1.76   0.04240  3.6138   2.81004
 1.10000    1.74     1.76   0.04242  3.6150   2.81184
 1.15000    1.74     1.76   0.04249  3.6154   2.81570
 1.20000    1.74     1.76   0.04251  3.6168   2.82421
 1.25000    1.74     1.76   0.04248  3.6188   2.81185
 1.30000    1.74     1.76   0.04246  3.6186   2.81511
 1.35000    1.74     1.76   0.04257  3.6210   2.81882
 1.40000    1.74     1.76   0.04273  3.6199   2.82108
 1.45000    1.74     1.76   0.04266  3.6209   2.81742
 1.50000    1.74     1.76   0.04281  3.6235   2.81729
 1.55000    1.74     1.76   0.04271  3.6250   2.81320
 1.60000    1.74     1.76   0.04272  3.6264   2.81405
 1.65000    1.74     1.76   0.04268  3.6276   2.81680
 1.70000    1.74     1.76   0.04274  3.6275   2.81579
 1.75000    1.74     1.76   0.04264  3.6276   2.80684
 1.80000    1.74     1.76   0.04280  3.6264   2.81444
 1.85000    1.74     1.77   0.04273  3.6279   2.82455
 1.90000    1.75     1.77   0.04280  3.6288   2.81506
 1.95000    1.75     1.77   0.04284  3.6301   2.80648
 2.00000    1.75     1.77   0.04277  3.6309   2.81344
 2.05000    1.75     1.77   0.04297  3.6307   2.81757
 2.10000    1.75     1.77   0.04276  3.6293   2.83347
 2.15000    1.75     1.77   0.04286  3.6292   2.82121
 2.20000    1.75     1.77   0.04285  3.6291   2.81593
 2.25000    1.75     1.77   0.04299  3.6284   2.82576
 2.30000    1.75     1.77   0.04298  3.6286   2.81557
 2.35000    1.75     1.77   0.04290  3.6283   2.81570
 2.40000    1.75     1.77   0.04291  3.6287   2.80681
 2.45000    1.75     1.77   0.04293  3.6273   2.80895
 2.50000    1.75     1.77   0.04270  3.6256   2.81684
 2.55000    1.75     1.77   0.04287  3.6266   2.81860
 2.60000    1.75     1.77   0.04291  3.6259   2.80955
 2.65000    1.75     1.77   0.04287  3.6237   2.81294
 2.70000    1.75     1.77   0.04274  3.6248   2.81611
 2.75000    1.75     1.77   0.04299  3.6241   2.81813
 2.80000    1.75     1.77   0.04299  3.6241   2.81985
 2.85000    1.75     1.77   0.04310  3.6229   2.81899
 2.90000    1.75     1.78   0.04308  3.6213   2.81786
 2.95000    1.75     1.78   0.04303  3.6246   2.81926
 3.00000    1.75     1.78   0.04317  3.6225   2.82134
 3.05000    1.75     1.78   0.04330  3.6225   2.81735
 3.10000    1.75     1.78   0.04325  3.6223   2.81704
 3.15000    1.75     1.78   0.04322  3.6229   2.81691
 3.20000    1.75     1.78   0.04328  3.6238   2.82429
 3.25000    1.75     1.78   0.04324  3.6215   2.80729
 3.30000    1.75     1.78   0.04314  3.6224   2.81653
 3.35000    1.75     1.78   0.04320  3.6215   2.81636
 3.40000    1.75     1.78   0.04333  3.6218   2.81789
 3.45000    1.75     1.78   0.04333  3.6207   2.81336
 3.50000    1.75     1.78   0.04323  3.6193   2.81635
 3.55000    1.75     1.78   0.04329  3.6182   2.81810
 3.60000    1.75     1.78   0.04321  3.6177   2.81291
 3.65000    1.75     1.78   0.04335  3.6172   2.81530
 3.70000    1.75     1.78   0.04351  3.6165   2.81141
 3.75000    1.75     1.78   0.04348  3.6175   2.81064
 3.80000    1.75     1.78   0.04350  3.6177   2.82272
 3.85000    1.75     1.78   0.04360  3.6165   2.81597
 3.90000    1.75     1.78   0.04352  3.6176   2.82368
 3.95000    1.75     1.78   0.04356  3.6188   2.81592
 4.00000    1.75     1.78   0.04366  3.6197   2.82268
 4.05000    1.75     1.78   0.04385  3.6205   2.82799
 4.10000    1.75     1.78   0.04379  3.6215   2.81409
 4.15000    1.75     1.78   0.04383  3.6207   2.81633
 4.20000    1.75     1.78   0.04380  3.6203   2.82293
 4.25000    1.75     1.78   0.04382  3.6209   2.82449
 4.30000    1.75     1.78   0.04389  3.6198   2.82717
 4.35000    1.75     1.78   0.04375  3.6208   2.82087
 4.40000    1.75     1.78   0.04390  3.6193   2.81509
 4.45000    1.75     1.78   0.04385  3.6195   2.82422
 4.50000    1.75     1.78   0.04398  3.6186   2.82385
 4.55000    1.75     1.78   0.04391  3.6191   2.82508
 4.60000    1.75     1.78   0.04396  3.6195   2.81809
 4.65000    1.75     1.79   0.04398  3.6200   2.82026
 4.70000    1.75     1.79   0.04381  3.6196   2.82308
 4.75000    1.75     1.79   0.04378  3.6187   2.83056
 4.80000    1.75     1.79   0.04367  3.6217   2.82355
 4.85000    1.75     1.79   0.04386  3.6202   2.81686
 4.90000    1.75     1.79   0.04380  3.6188   2.81909
 4.95000    1.75     1.79   0.04370  3.6186   2.82262
 5.00000    1.75     1.79   0.04372  3.6177   2.82616
 5.00000    1.75     1.79   0.04370  3.6173   2.81704
 4.95000    1.75     1.79   0.04356  3.6160   2.83089
 4.90000    1.75     1.79   0.04366  3.6139   2.82995
 4.85000    1.75     1.79   0.04372  3.6141   2.82723
 4.80000    1.75     1.79   0.04372  3.6145   2.82312
 4.75000    1.75     1.79   0.04349  3.6149   2.81996
 4.70000    1.75     1.79   0.04361  3.6164   2.82702
 4.65000    1.75     1.79   0.04362  3.6160   2.83365
 4.60000    1.75     1.78   0.04345  3.6150   2.82862
 4.55000    1.75     1.78   0.04367  3.6162   2.81951
 4.50000    1.75     1.78   0.04349  3.6164   2.81854
 4.45000    1.75     1.78   0.04363  3.6169   2.82801
 4.40000    1.75     1.78   0.04344  3.6165   2.82946
 4.35000    1.75     1.78   0.04349  3.6164   2.81824
 4.30000    1.75     1.78   0.04354  3.6156   2.82264
 4.25000    1.75     1.78   0.04355  3.6159   2.83033
 4.20000    1.75     1.78   0.04354  3.6166   2.82263
 4.15000    1.75     1.78   0.04346  3.6168   2.82745
 4.10000    1.75     1.78   0.04341  3.6157   2.81508
 4.05000    1.75     1.78   0.04354  3.6183   2.81460
 4.00000    1.75     1.78   0.04353  3.6184   2.82254
 3.95000    1.75     1.78   0.04353  3.6186   2.82954
 3.90000    1.75     1.78   0.04352  3.6177   2.81631
 3.85000    1.74     1.77   0.04332  3.6187   2.82180
 3.80000    1.74     1.77   0.04323  3.6191   2.82105
 3.75000    1.74     1.77   0.04339  3.6197   2.82515
 3.70000    1.74     1.77   0.04322  3.6200   2.81783
 3.65000    1.74     1.77   0.04332  3.6217   2.81957
 3.60000    1.74     1.77   0.04317  3.6238   2.81897
 3.55000    1.74     1.77   0.04314  3.6253   2.82882
 3.50000    1.74     1.77   0.04323  3.6245   2.82954
 3.45000    1.74     1.77   0.04322  3.6263   2.82068
 3.40000    1.74     1.77   0.04334  3.6263   2.82282
 3.35000    1.74     1.77   0.04319  3.6259   2.82311
 3.30000    1.74     1.77   0.04324  3.6275   2.82181
 3.25000    1.74     1.77   0.04314  3.6272   2.81504
 3.20000    1.74     1.77   0.04307  3.6260   2.82318
 3.15000    1.74     1.77   0.04305  3.6287   2.82115
 3.10000    1.74     1.77   0.04298  3.6274   2.81045
 3.05000    1.74     1.76   0.04301  3.6278   2.81850
 3.00000    1.74     1.76   0.04296  3.6272   2.81785
 2.95000    1.74     1.76   0.04284  3.6284   2.81799
 2.90000    1.74     1.76   0.04277  3.6296   2.82165
 2.85000    1.74     1.76   0.04284  3.6302   2.81545
 2.80000    1.74     1.76   0.04285  3.6312   2.81628
 2.75000    1.74     1.76   0.04275  3.6299   2.81788
 2.70000    1.74     1.76   0.04259  3.6295   2.82620
 2.65000    1.74     1.76   0.04276  3.6305   2.81591
 2.60000    1.74     1.76   0.04267  3.6324   2.81964
 2.55000    1.74     1.76   0.04275  3.6325   2.82317
 2.50000    1.73     1.76   0.04256  3.6323   2.83005
 2.45000    1.73     1.76   0.04262  3.6322   2.81495
 2.40000    1.73     1.76   0.04266  3.6321   2.81823
 2.35000    1.73     1.76   0.04255  3.6331   2.82009
 2.30000    1.73     1.76   0.04256  3.6324   2.81931
 2.25000    1.73     1.76   0.04262  3.6330   2.81224
 2.20000    1.73     1.75   0.04257  3.6323   2.81944
 2.15000    1.73     1.75   0.04260  3.6328   2.82157
 2.10000    1.73     1.75   0.04246  3.6333   2.82132
 2.05000    1.73     1.75   0.04252  3.6318   2.81213
 2.00000    1.73     1.75   0.04248  3.6337   2.81781
 1.95000    1.73     1.75   0.04264  3.6317   2.81628
 1.90000    1.73     1.75   0.04249  3.6324   2.81868
 1.85000    1.73     1.75   0.04248  3.6328   2.81475
 1.80000    1.73     1.75   0.04239  3.6324   2.81025
 1.75000    1.73     1.75   0.04249  3.6313   2.81822
 1.70000    1.73     1.75   0.04226  3.6339   2.81403
 1.65000    1.73     1.75   0.04232  3.6368   2.81133
 1.60000    1.73     1.75   0.04240  3.6351   2.81239
 1.55000    1.73     1.75   0.04223  3.6356   2.81827
 1.50000    1.73     1.75   0.04240  3.6395   2.81824
 1.45000    1.73     1.75   0.04241  3.6359   2.82140
 1.40000    1.73     1.75   0.04248  3.6326   2.80925
 1.35000    1.73     1.75   0.04238  3.6324   2.81464
 1.30000    1.73     1.75   0.04244  3.6302   2.81903
 1.25000    1.73     1.75   0.04247  3.6314   2.82088
 1.20000    1.73     1.75   0.04234  3.6297   2.81205
 1.15000    1.73     1.75   0.04226  3.6297   2.80457
 1.10000    1.73     1.75   0.04222  3.6296   2.81429
 1.05000    1.73     1.75   0.04210  3.6266   2.81160
 1.00000    1.73     1.75   0.04206  3.6261   2.82333
 0.95000    1.73     1.75   0.04213  3.6253   2.81166
 0.90000    1.73     1.75   0.04198  3.6256   2.81208
 0.85000    1.73     1.75   0.04175  3.6252   2.81467
 0.80000    1.73     1.75   0.04173  3.6243   2.82145
 0.75000    1.73     1.75   0.04166  3.6228   2.81283
 0.70000    1.73     1.75   0.04144  3.6210   2.80592
 0.65000    1.73     1.75   0.04138  3.6197   2.81505
 0.60000    1.73     1.75   0.04111  3.6167   2.81303
 0.55000    1.73     1.75   0.04081  3.6146   2.82223
 0.50000    1.73     1.75   0.04058  3.6131   2.82745
 0.45000    1.73     1.75   0.04021  3.6135   2.81089
 0.40000    1.73     1.75   0.03982  3.6177   2.82176
 0.35000    1.73     1.75   0.03937  3.6235   2.81863
 0.30000    1.73     1.75   0.03905  3.6312   2.81174
 0.25000    1.73     1.75   0.03868  3.6388   2.80630
 0.20000    1.73     1.75   0.03824  3.6510   2.80605
 0.15000    1.73     1.75   0.03783  3.6625   2.81497
 0.10000    1.73     1.75   0.03751  3.6733   2.81126
 0.05000    1.73     1.75   0.03736  3.6875   2.81954
-0.00000    1.73     1.75   0.03687  3.7029   2.81311
-0.05000    1.73     1.75   0.03721  3.6907   2.81189
-0.10000    1.73     1.75   0.03726  3.6796   2.81660
-0.15000    1.73     1.75   0.03779  3.6691   2.81397
-0.20000    1.73     1.75   0.03826  3.6559   2.81163
-0.25000    1.73     1.75   0.03861  3.6443   2.81902
-0.30000    1.73     1.75   0.03897  3.6349   2.80956
-0.35000    1.73     1.75   0.03937  3.6257   2.81039
-0.40000    1.73     1.75   0.03983  3.6175   2.81480
-0.45000    1.73     1.75   0.04019  3.6132   2.81876
-0.50000    1.73     1.75   0.04055  3.6102   2.81489
-0.55000    1.73     1.75   0.04094  3.6126   2.82062
-0.60000    1.73     1.75   0.04120  3.6135   2.80868
-0.65000    1.73     1.75   0.04135  3.6160   2.80857
-0.70000    1.73     1.75   0.04173  3.6176   2.81763
-0.75000    1.73     1.75   0.04176  3.6199   2.81718
-0.80000    1.73     1.75   0.04189  3.6208   2.81123
-0.85000    1.73     1.75   0.04190  3.6241   2.82289
-0.90000    1.73     1.75   0.04204  3.6231   2.81768
-0.95000    1.73     1.75   0.04214  3.6257   2.81468
-1.00000    1.73     1.75   0.04241  3.6257   2.81911
-1.05000    1.73     1.75   0.04247  3.6287   2.81253
-1.10000    1.74     1.76   0.04246  3.6276   2.81262
-1.15000    1.74     1.76   0.04248  3.6294   2.81770
-1.20000    1.74     1.76   0.04251  3.6294   2.81432
-1.25000    1.74     1.76   0.04260  3.6310   2.81735
-1.30000    1.74     1.76   0.04272  3.6304   2.82647
-1.35000    1.74     1.76   0.04266  3.6326   2.81389
-1.40000    1.74     1.76   0.04268  3.6336   2.81194
-1.45000    1.74     1.76   0.04290  3.6343   2.81551
-1.50000    1.74     1.76   0.04288  3.6343   2.80959
-1.55000    1.74     1.76   0.04283  3.6373   2.81869
-1.60000    1.74     1.76   0.04285  3.6368   2.81941
-1.65000    1.74     1.76   0.04291  3.6392   2.81945
-1.70000    1.74     1.76   0.04284  3.6390   2.81867
-1.75000    1.74     1.76   0.04289  3.6385   2.80844
-1.80000    1.74     1.76   0.04290  3.6377   2.81548
-1.85000    1.74     1.76   0.04305  3.6374   2.81578
-1.90000    1.74     1.76   0.04312  3.6397   2.81382
-1.95000    1.74     1.76   0.04302  3.6401   2.81615
-2.00000    1.74     1.76   0.04306  3.6406   2.81706
-2.05000    1.74     1.76   0.04317  3.6400   2.82116
-2.10000    1.74     1.76   0.04312  3.6397   2.81359
-2.15000    1.74     1.76   0.04320  3.6398   2.81768
-2.20000    1.74     1.76   0.04319  3.6386   2.82034
-2.25000    1.74     1.76   0.04325  3.6397   2.82108
-2.30000    1.74     1.76   0.04325  3.6402   2.80224
-2.35000    1.74     1.77   0.04316  3.6398   2.80117
-2.40000    1.74     1.77   0.04312  3.6397   2.81198
-2.45000    1.74     1.77   0.04323  3.6407   2.80884
-2.50000    1.74     1.77   0.04323  3.6377   2.81168
-2.55000    1.74     1.77   0.04311  3.6363   2.81486
-2.60000    1.74     1.77   0.04339  3.6308   2.81872
-2.65000    1.74     1.77   0.04322  3.6388   2.81576
-2.70000    1.74     1.77   0.04301  3.6357   2.81389
-2.75000    1.74     1.77   0.04337  3.6345   2.81730
-2.80000    1.74     1.77   0.04330  3.6349   2.81548
-2.85000    1.74     1.77   0.04334  3.6349   2.81774
-2.90000    1.74     1.77   0.04314  3.6321   2.82262
-2.95000    1.74     1.77   0.04341  3.6285   2.81186
-3.00000    1.74     1.77   0.04332  3.6296   2.81924
-3.05000    1.74     1.77   0.04361  3.6280   2.81395
-3.10000    1.74     1.77   0.04364  3.6289   2.81352
-3.15000    1.75     1.77   0.04359  3.6293   2.81640
-3.20000    1.75     1.77   0.04370  3.6296   2.81934
-3.25000    1.75     1.78   0.04393  3.6218   2.81017
-3.30000    1.75     1.78   0.04366  3.6227   2.81892
-3.35000    1.75     1.78   0.04365  3.6275   2.81334
-3.40000    1.75     1.78   0.04371  3.6230   2.82384
-3.45000    1.75     1.78   0.04380  3.6220   2.82800
-3.50000    1.75     1.78   0.04364  3.6216   2.81818
-3.55000    1.75     1.78   0.04397  3.6215   2.80988
-3.60000    1.75     1.78   0.04399  3.6251   2.80878
-3.65000    1.75     1.78   0.04392  3.6262   2.81399
-3.70000    1.75     1.78   0.04399  3.6250   2.80614
-3.75000    1.75     1.78   0.04423  3.6282   2.81598
-3.80000    1.75     1.78   0.04427  3.6263   2.81207
-3.85000    1.75     1.78   0.04403  3.6266   2.81001
-3.90000    1.75     1.78   0.04418  3.6256   2.80771
-3.95000    1.75     1.78   0.04397  3.6254   2.80130
-4.00000    1.75     1.78   0.04398  3.6266   2.79982
-4.05000    1.75     1.78   0.04435  3.6273   2.80753
-4.10000    1.75     1.78   0.04428  3.6264   2.81042
-4.15000    1.75     1.78   0.04446  3.6270   2.81952
-4.20000    1.75     1.78   0.04441  3.6267   2.81861
-4.25000    1.75     1.78   0.04436  3.6272   2.81019
-4.30000    1.75     1.78   0.04453  3.6294   2.80576
-4.35000    1.75     1.78   0.04443  3.6328   2.80741
-4.40000    1.75     1.78   0.04437  3.6365   2.80868
-4.45000    1.75     1.78   0.04437  3.6383   2.81059
-4.50000    1.75     1.78   0.04440  3.6415   2.81259
-4.55000    1.75     1.78   0.04452  3.6406   2.80574
-4.60000    1.75     1.79   0.04442  3.6404   2.80693
-4.65000    1.75     1.79   0.04447  3.6380   2.80512
-4.70000    1.75     1.79   0.04442  3.6434   2.81094
-4.75000    1.75     1.79   0.04439  3.6441   2.81559
-4.80000    1.75     1.79   0.04423  3.6438   2.81257
-4.85000    1.75     1.79   0.04385  3.6442   2.81808
-4.90000    1.75     1.79   0.04405  3.6429   2.80899
-4.95000    1.75     1.79   0.04418  3.6330   2.81155
-5.00000    1.75     1.79   0.04424  3.6380   2.80618
-5.00000    1.75     1.79   0.04402  3.6380   2.80387
-4.95000    1.75     1.79   0.04411  3.6247   2.81207
-4.90000    1.75     1.79   0.04467  3.6262   2.80769
-4.85000    1.75     1.79   0.04450  3.6409   2.81021
-4.80000    1.75     1.79   0.04384  3.6417   2.80174
-4.75000    1.75     1.79   0.04372  3.6387   2.81784
-4.70000    1.75     1.79   0.04383  3.6407   2.81013
-4.65000    1.75     1.78   0.04376  3.6376   2.81173
-4.60000    1.75     1.78   0.04380  3.6384   2.81017
-4.55000    1.75     1.78   0.04384  3.6403   2.80159
-4.50000    1.75     1.78   0.04383  3.6426   2.80795
-4.45000    1.75     1.78   0.04376  3.6402   2.81053
-4.40000    1.75     1.78   0.04384  3.6375   2.81117
-4.35000    1.74     1.78   0.04380  3.6405   2.81049
-4.30000    1.74     1.78   0.04390  3.6433   2.81303
-4.25000    1.74     1.78   0.04429  3.6422   2.80581
-4.20000    1.74     1.78   0.04450  3.6361   2.80552
-4.15000    1.74     1.78   0.04458  3.6277   2.81231
-4.10000    1.74     1.78   0.04451  3.6238   2.81698
-4.05000    1.74     1.77   0.04414  3.6280   2.81338
-4.00000    1.74     1.77   0.04408  3.6271   2.81505
-3.95000    1.74     1.77   0.04402  3.6267   2.81470
-3.90000    1.74     1.77   0.04384  3.6344   2.80931
-3.85000    1.74     1.77   0.04368  3.6313   2.80715
-3.80000    1.74     1.77   0.04367  3.6270   2.81144
-3.75000    1.74     1.77   0.04375  3.6271   2.80060
-3.70000    1.74     1.77   0.04379  3.6279   2.80250
-3.65000    1.73     1.77   0.04376  3.6273   2.81931
-3.60000    1.73     1.77   0.04371  3.6260   2.81581
-3.55000    1.73     1.77   0.04368  3.6265   2.81754
-3.50000    1.73     1.76   0.04372  3.6253   2.81746
-3.45000    1.73     1.76   0.04359  3.6260   2.81629
-3.40000    1.73     1.76   0.04371  3.6281   2.82245
-3.35000    1.73     1.76   0.04379  3.6261   2.81323
-3.30000    1.73     1.76   0.04383  3.6266   2.81309
-3.25000    1.73     1.76   0.04385  3.6266   2.81134
-3.20000    1.73     1.76   0.04362  3.6287   2.81665
-3.15000    1.73     1.76   0.04374  3.6261   2.81074
-3.10000    1.73     1.76   0.04331  3.6255   2.81132
-3.05000    1.73     1.76   0.04353  3.6248   2.82047
-3.00000    1.73     1.76   0.04350  3.6297   2.81721
-2.95000    1.73     1.76   0.04345  3.6269   2.81354
-2.90000    1.73     1.76   0.04354  3.6268   2.81344
-2.85000    1.73     1.76   0.04332  3.6255   2.80726
-2.80000    1.73     1.76   0.04331  3.6248   2.80781
-2.75000    1.73     1.76   0.04320  3.6257   2.80918
-2.70000    1.73     1.75   0.04317  3.6250   2.80016
-2.65000    1.72     1.75   0.04317  3.6243   2.81679
-2.60000    1.72     1.75   0.04310  3.6266   2.81815
-2.55000    1.72     1.75   0.04295  3.6276   2.82418
-2.50000    1.72     1.75   0.04318  3.6251   2.81750
-2.45000    1.72     1.75   0.04315  3.6260   2.81600
-2.40000    1.72     1.75   0.04305  3.6263   2.81461
-2.35000    1.72     1.75   0.04298  3.6270   2.81199
-2.30000    1.72     1.75   0.04283  3.6285   2.80377
-2.25000    1.72     1.75   0.04297  3.6286   2.80318
-2.20000    1.72     1.75   0.04301  3.6284   2.81472
-2.15000    1.72     1.75   0.04302  3.6290   2.82127
-2.10000    1.72     1.75   0.04284  3.6298   2.80860
-2.05000    1.72     1.75   0.04297  3.6287   2.80820
-2.00000    1.72     1.75   0.04289  3.6292   2.80646
-1.95000    1.72     1.74   0.04283  3.6312   2.81232
-1.90000    1.72     1.74   0.04283  3.6300   2.81268
-1.85000    1.72     1.74   0.04293  3.6296   2.80693
-1.80000    1.72     1.74   0.04283  3.6285   2.81176
-1.75000    1.72     1.74   0.04288  3.6288   2.80729
-1.70000    1.72     1.74   0.04275  3.6311   2.81344
-1.65000    1.72     1.74   0.04278  3.6305   2.82922
-1.60000    1.72     1.74   0.04291  3.6308   2.81817
-1.55000    1.72     1.74   0.04282  3.6317   2.82150
-1.50000    1.72     1.74   0.04288  3.6300   2.81060
-1.45000    1.72     1.74   0.04262  3.6273   2.81943
-1.40000    1.72     1.74   0.04245  3.6276   2.80682
-1.35000    1.72     1.74   0.04252  3.6284   2.80599
-1.30000    1.72     1.74   0.04259  3.6281   2.81397
-1.25000    1.72     1.74   0.04254  3.6285   2.81228
-1.20000    1.72     1.74   0.04256  3.6313   2.81231
-1.15000    1.72     1.74   0.04248  3.6305   2.81977
-1.10000    1.72     1.74   0.04226  3.6306   2.82321
-1.05000    1.72     1.74   0.04230  3.6297   2.81723
-1.00000    1.72     1.74   0.04229  3.6276   2.81251
-0.95000    1.72     1.74   0.04215  3.6273   2.80908
-0.90000    1.72     1.74   0.04200  3.6255   2.81116
-0.85000    1.72     1.74   0.04198  3.6241   2.81470
-0.80000    1.72     1.74   0.04191  3.6232   2.81736
-0.75000    1.72     1.74   0.04165  3.6217   2.81861
-0.70000    1.72     1.74   0.04165  3.6202   2.81457
-0.65000    1.72     1.74   0.04151  3.6183   2.81998
-0.60000    1.72     1.74   0.04122  3.6155   2.81005
-0.55000    1.72     1.74   0.04099  3.6110   2.80976
-0.50000    1.72     1.74   0.04056  3.6094   2.81526
-0.45000    1.72     1.74   0.04016  3.6109   2.81330
-0.40000    1.72     1.74   0.03976  3.6137   2.82177
-0.35000    1.72     1.74   0.03936  3.6195   2.81461
-0.30000    1.72     1.74   0.03896  3.6251   2.82366
-0.25000    1.72     1.74   0.03858  3.6323   2.80756
-0.20000    1.72     1.74   0.03830  3.6432   2.80957
-0.15000    1.72     1.74   0.03792  3.6550   2.81285
-0.10000    1.72     1.74   0.03757  3.6662   2.81597
-0.05000    1.72     1.74   0.03728  3.6804   2.82124
 0.00000    1.72     1.74   0.03708  3.6926   2.82588
