 Field[T] Tsmpl[K] Tcntr[K] Signal
 0.00000    1.84     1.86   2.80170
 0.05000    1.84     1.86   2.80660
 0.10000    1.84     1.86   2.80670
 0.15000    1.84     1.86   2.80940
 0.20000    1.84     1.86   2.81140
 0.25000    1.84     1.86   2.81120
 0.30000    1.84     1.86   2.80900
 0.35000    1.84     1.86   2.81030
 0.40000    1.84     1.86   2.81010
 0.45000    1.84     1.86   2.80860
 0.50000    1.84     1.86   2.80820
 0.55000    1.84     1.86   2.80670
 0.60000    1.84     1.86   2.80490
 0.65000    1.84     1.86   2.80430
 0.70000    1.84     1.86   2.80160
 0.75000    1.84     1.86   2.80280
 0.80000    1.84     1.86   2.79910
 0.85000    1.84     1.86   2.79600
 0.90000    1.84     1.86   2.79690
 0.95000    1.84     1.86   2.79460
 1.00000    1.84     1.86   2.79250
 1.05000    1.84     1.86   2.78960
 1.10000    1.84     1.86   2.78750
 1.15000    1.84     1.86   2.78630
 1.20000    1.84     1.86   2.78110
 1.25000    1.84     1.86   2.78020
 1.30000    1.84     1.87   2.77540
 1.35000    1.84     1.87   2.77310
 1.40000    1.84     1.87   2.77140
 1.45000    1.84     1.87   2.76310
 1.50000    1.84     1.87   2.75770
 1.55000    1.84     1.87   2.75070
 1.60000    1.84     1.87   2.74050
 1.65000    1.84     1.87   2.72750
 1.70000    1.84     1.87   2.70750
 1.75000    1.84     1.87   2.67590
 1.80000    1.84     1.87   2.64030
 1.85000    1.84     1.87   2.61240
 1.90000    1.84     1.87   2.60620
 1.95000    1.84     1.87   2.62120
 2.00000    1.84     1.87   2.64450
 2.05000    1.84     1.87   2.66750
 2.10000    1.84     1.87   2.68790
 2.15000    1.85     1.87   2.70670
 2.20000    1.85     1.88   2.71820
 2.25000    1.85     1.88   2.72790
 2.30000    1.85     1.88   2.73980
 2.35000    1.85     1.88   2.74480
 2.40000    1.85     1.88   2.75160
 2.45000    1.85     1.88   2.75420
 2.50000    1.85     1.88   2.75910
 2.55000    1.85     1.88   2.76520
 2.60000    1.85     1.88   2.77020
 2.65000    1.85     1.88   2.76860
 2.70000    1.85     1.88   2.76850
 2.75000    1.85     1.88   2.76490
 2.80000    1.85     1.88   2.76350
 2.85000    1.85     1.88   2.76250
 2.90000    1.85     1.88   2.76400
 2.95000    1.85     1.88   2.76220
 3.00000    1.85     1.88   2.76240
 3.05000    1.85     1.88   2.76040
 3.10000    1.85     1.88   2.75970
 3.15000    1.85     1.89   2.76210
 3.20000    1.85     1.89   2.76050
 3.25000    1.85     1.89   2.76210
 3.30000    1.85     1.89   2.76320
 3.35000    1.85     1.89   2.76190
 3.40000    1.85     1.89   2.76310
 3.45000    1.85     1.89   2.76340
 3.50000    1.85     1.89   2.76520
 3.55000    1.85     1.89   2.76590
 3.60000    1.85     1.89   2.76490
 3.65000    1.86     1.89   2.76610
 3.70000    1.86     1.89   2.76660
 3.75000    1.86     1.89   2.76650
 3.80000    1.86     1.89   2.76620
 3.85000    1.86     1.89   2.76550
 3.90000    1.86     1.89   2.76590
 3.95000    1.86     1.89   2.76720
 4.00000    1.86     1.89   2.76570
 4.00000    1.86     1.89   2.76670
 3.95000    1.86     1.89   2.76630
 3.90000    1.86     1.89   2.76570
 3.85000    1.86     1.89   2.76480
 3.80000    1.86     1.89   2.76550
 3.75000    1.86     1.89   2.76220
 3.70000    1.86     1.89   2.76350
 3.65000    1.86     1.89   2.76330
 3.60000    1.86     1.89   2.76360
 3.55000    1.86     1.89   2.76180
 3.50000    1.86     1.89   2.76120
 3.45000    1.86     1.89   2.75890
 3.40000    1.85     1.89   2.75650
 3.35000    1.85     1.89   2.75500
 3.30000    1.85     1.89   2.75480
 3.25000    1.85     1.89   2.75260
 3.20000    1.85     1.89   2.75260
 3.15000    1.85     1.89   2.74950
 3.10000    1.85     1.88   2.75220
 3.05000    1.85     1.88   2.75150
 3.00000    1.85     1.88   2.74950
 2.95000    1.85     1.88   2.75150
 2.90000    1.85     1.88   2.75080
 2.85000    1.85     1.88   2.75110
 2.80000    1.85     1.88   2.75060
 2.75000    1.85     1.88   2.75040
 2.70000    1.85     1.88   2.75190
 2.65000    1.85     1.88   2.75340
 2.60000    1.85     1.88   2.75360
 2.55000    1.85     1.88   2.74700
 2.50000    1.85     1.88   2.74060
 2.45000    1.85     1.88   2.73700
 2.40000    1.85     1.88   2.72940
 2.35000    1.85     1.88   2.72280
 2.30000    1.85     1.88   2.71590
 2.25000    1.85     1.88   2.70620
 2.20000    1.85     1.88   2.69430
 2.15000    1.85     1.87   2.68040
 2.10000    1.85     1.87   2.66360
 2.05000    1.85     1.87   2.64300
 2.00000    1.85     1.87   2.61900
 1.95000    1.85     1.87   2.59520
 1.90000    1.85     1.87   2.57500
 1.85000    1.85     1.87   2.57700
 1.80000    1.84     1.87   2.59890
 1.75000    1.84     1.87   2.63350
 1.70000    1.84     1.87   2.66400
 1.65000    1.84     1.87   2.68650
 1.60000    1.84     1.87   2.69990
 1.55000    1.84     1.87   2.71210
 1.50000    1.84     1.87   2.71830
 1.45000    1.84     1.87   2.72490
 1.40000    1.84     1.87   2.72720
 1.35000    1.84     1.87   2.73150
 1.30000    1.84     1.87   2.73410
 1.25000    1.84     1.87   2.73570
 1.20000    1.84     1.87   2.74030
 1.15000    1.84     1.87   2.74120
 1.10000    1.84     1.87   2.74370
 1.05000    1.84     1.87   2.74670
 1.00000    1.84     1.87   2.75000
 0.95000    1.84     1.87   2.75250
 0.90000    1.84     1.87   2.75300
 0.85000    1.84     1.87   2.75020
 0.80000    1.84     1.87   2.75280
 0.75000    1.84     1.87   2.75430
 0.70000    1.84     1.87   2.75280
 0.65000    1.84     1.87   2.75530
 0.60000    1.84     1.87   2.75570
 0.55000    1.84     1.87   2.75850
 0.50000    1.84     1.87   2.75650
 0.45000    1.84     1.87   2.75760
 0.40000    1.84     1.86   2.75640
 0.35000    1.84     1.86   2.75670
 0.30000    1.84     1.86   2.75990
 0.25000    1.84     1.86   2.75860
 0.20000    1.84     1.86   2.75910
 0.15000    1.84     1.86   2.75720
 0.10000    1.84     1.86   2.75840
 0.05000    1.84     1.86   2.75810
-0.00000    1.84     1.86   2.75900
