 Field[T] Tsmpl[K] Tcntr[K] Signal   Mirror[MM]
 0.00000    4.95     3.00   1.57538  0.8802
 0.05000    4.95     3.00   1.57410  0.8797
 0.10000    4.96     3.00   1.57339  0.8806
 0.15000    4.96     3.00   1.57309  0.8798
 0.20000    4.96     2.99   1.57267  0.8801
 0.25000    4.96     3.01   1.57297  0.8800
 0.30000    4.96     2.99   1.57459  0.8798
 0.35000    4.95     2.99   1.57417  0.8798
 0.40000    4.95     3.01   1.57657  0.8795
 0.45000    4.94     3.00   1.57573  0.8788
 0.50000    4.92     3.00   1.57638  0.8788
 0.55000    4.91     3.00   1.57576  0.8790
 0.60000    4.90     3.00   1.57536  0.8790
 0.65000    4.88     2.99   1.57679  0.8789
 0.70000    4.88     2.99   1.57782  0.8790
 0.75000    4.86     3.01   1.57848  0.8792
 0.80000    4.86     2.99   1.57838  0.8792
 0.85000    4.85     2.99   1.57942  0.8787
 0.90000    4.84     2.99   1.57746  0.8791
 0.95000    4.84     2.99   1.57736  0.8798
 1.00000    4.84     2.99   1.57870  0.8793
 1.05000    4.83     2.99   1.57829  0.8795
 1.10000    4.83     2.99   1.57932  0.8793
 1.15000    4.83     2.98   1.57727  0.8797
 1.20000    4.83     2.98   1.57893  0.8801
 1.25000    4.82     3.00   1.57826  0.8802
 1.30000    4.83     2.98   1.57921  0.8798
 1.35000    4.83     2.99   1.57815  0.8812
 1.40000    4.83     3.01   1.57927  0.8805
 1.45000    4.84     2.98   1.58052  0.8797
 1.50000    4.85     2.99   1.57883  0.8802
 1.55000    4.86     3.00   1.58001  0.8796
 1.60000    4.86     2.99   1.58093  0.8795
 1.65000    4.87     3.00   1.58012  0.8798
 1.70000    4.87     2.99   1.58119  0.8803
 1.75000    4.87     3.00   1.57984  0.8806
 1.80000    4.87     2.99   1.57587  0.8804
 1.85000    4.87     3.01   1.57460  0.8803
 1.90000    4.88     2.99   1.57631  0.8801
 1.95000    4.89     2.99   1.57966  0.8805
 2.00000    4.89     3.01   1.57996  0.8805
 2.00000    4.89     2.99   1.57949  0.8812
 1.95000    4.89     3.00   1.58058  0.8808
 1.90000    0.00     0.00   1.57977  0.8803
 1.85000    4.89     2.99   1.57937  0.8804
 1.80000    4.88     3.00   1.57871  0.8805
 1.75000    4.87     2.99   1.57983  0.8802
 1.70000    4.87     3.01   1.58020  0.8804
 1.65000    4.87     3.00   1.58186  0.8802
 1.60000    4.87     3.00   1.57867  0.8807
 1.55000    4.87     3.00   1.58057  0.8803
 1.50000    4.87     3.02   1.58125  0.8796
 1.45000    4.88     3.00   1.58060  0.8797
 1.40000    4.88     3.02   1.58043  0.8798
 1.35000    4.89     3.01   1.58045  0.8800
 1.30000    4.89     3.01   1.58085  0.8794
 1.25000    4.90     3.01   1.57940  0.8795
 1.20000    4.90     3.01   1.58003  0.8797
 1.15000    4.90     3.02   1.57977  0.8798
 1.10000    4.91     3.01   1.57937  0.8798
 1.05000    4.91     3.02   1.57874  0.8794
 1.00000    4.92     3.01   1.57926  0.8792
 0.95000    4.92     3.01   1.57865  0.8795
 0.90000    4.93     3.03   1.57873  0.8793
 0.85000    4.93     3.01   1.57951  0.8792
 0.80000    4.93     3.02   1.57826  0.8793
 0.75000    4.94     3.02   1.57791  0.8803
 0.70000    4.95     3.01   1.57618  0.8792
 0.65000    4.95     3.01   1.57665  0.8794
 0.60000    4.95     3.01   1.57634  0.8793
 0.55000    4.96     3.02   1.57576  0.8796
 0.50000    4.96     3.01   1.57590  0.8796
 0.45000    4.96     3.00   1.57555  0.8791
 0.40000    4.96     3.02   1.57637  0.8797
 0.35000    4.97     3.00   1.57315  0.8799
 0.30000    4.96     3.00   1.57327  0.8805
 0.25000    4.97     3.01   1.57292  0.8815
 0.20000    4.97     3.00   1.57387  0.8805
 0.15000    4.98     3.00   1.57375  0.8810
 0.10000    4.99     3.01   1.57427  0.8804
 0.05000    4.99     3.00   1.57316  0.8810
-0.00000    4.99     3.00   1.57315  0.8804
