 Field[T] Tsmpl[K] Tcntr[K] Signal   Mirror[MM]
 0.00000    4.78     2.97   1.20558  2.7423
 0.05000    4.78     3.01   1.19710  2.7426
 0.10000    4.78     2.98   1.19964  2.7424
 0.15000    4.78     3.00   1.22206  2.7421
 0.20000    4.78     2.99   1.23429  2.7421
 0.25000    4.78     2.99   1.22212  2.7426
 0.30000    4.78     3.00   1.22510  2.7424
 0.35000    4.78     3.01   1.22320  2.7424
 0.40000    4.79     2.99   1.23481  2.7421
 0.45000    4.79     2.99   1.23029  2.7424
 0.50000    4.79     3.00   1.24653  2.7422
 0.55000    4.80     3.00   1.22943  2.7426
 0.60000    4.80     2.99   1.24819  2.7427
 0.65000    4.80     2.98   1.24284  2.7425
 0.70000    4.80     2.99   1.24120  2.7428
 0.75000    4.80     2.98   1.26640  2.7427
 0.80000    4.80     2.98   1.26289  2.7430
 0.85000    4.79     2.98   1.26135  2.7434
 0.90000    4.79     2.98   1.26341  2.7431
 0.95000    4.79     2.99   1.27862  2.7429
 1.00000    4.79     2.97   1.27679  2.7432
 1.05000    4.79     2.97   1.27451  2.7434
 1.10000    4.78     2.97   1.27871  2.7438
 1.15000    4.77     2.96   1.25583  2.7444
 1.20000    4.77     2.96   1.27166  2.7444
 1.25000    4.76     2.95   1.28239  2.7445
 1.30000    4.76     2.96   1.25947  2.7448
 1.35000    4.76     2.98   1.26388  2.7451
 1.40000    4.77     2.96   1.26672  2.7455
 1.45000    4.77     2.97   1.27707  2.7455
 1.50000    4.77     2.96   1.27871  2.7458
 1.55000    4.77     2.98   1.26060  2.7463
 1.60000    4.77     2.97   1.25933  2.7465
 1.65000    4.78     2.97   1.25395  2.7471
 1.70000    4.77     2.99   1.25005  2.7470
 1.75000    4.77     2.97   1.24613  2.7467
 1.80000    4.76     2.98   1.25180  2.7459
 1.85000    4.76     3.00   1.24426  2.7453
 1.90000    4.75     2.98   1.25556  2.7446
 1.95000    4.74     2.99   1.24722  2.7443
 2.00000    4.74     2.99   1.25323  2.7440
 2.05000    4.74     2.99   1.26615  2.7439
 2.10000    4.74     2.99   1.27776  2.7437
 2.15000    4.74     3.00   1.26830  2.7438
 2.20000    4.74     3.00   1.26745  2.7439
 2.25000    4.73     2.97   1.27149  2.7440
 2.30000    4.72     2.96   1.28493  2.7440
 2.35000    4.70     2.96   1.28415  2.7440
 2.40000    4.68     2.95   1.28598  2.7443
 2.45000    4.66     2.96   1.27378  2.7447
 2.50000    4.65     2.96   1.26864  2.7447
 2.55000    4.64     2.95   1.27865  2.7445
 2.60000    4.62     2.97   1.27383  2.7448
 2.65000    4.62     2.96   1.28357  2.7449
 2.70000    4.61     2.98   1.28656  2.7449
 2.75000    4.61     2.97   1.28507  2.7447
 2.80000    4.61     2.97   1.29185  2.7452
 2.85000    4.62     2.98   1.29162  2.7454
 2.90000    4.63     2.99   1.29684  2.7450
 2.95000    4.63     2.99   1.29204  2.7454
 3.00000    4.64     2.99   1.29137  2.7455
 3.00000    4.65     3.00   1.29537  2.7455
 2.95000    4.66     2.99   1.30330  2.7452
 2.90000    4.67     3.00   1.30156  2.7453
 2.85000    4.69     3.01   1.29312  2.7452
 2.80000    4.72     3.01   1.29634  2.7449
 2.75000    4.74     3.02   1.29571  2.7449
 2.70000    4.77     3.03   1.30528  2.7445
 2.65000    4.80     3.05   1.30516  2.7444
 2.60000    4.83     3.05   1.30505  2.7444
 2.55000    4.86     3.05   1.30042  2.7441
 2.50000    4.88     3.06   1.29676  2.7441
 2.45000    4.90     3.06   1.30292  2.7443
 2.40000    4.93     3.07   1.30502  2.7439
 2.35000    4.95     3.06   1.29402  2.7440
 2.30000    4.97     3.07   1.29679  2.7436
 2.25000    4.98     3.09   1.29724  2.7437
 2.20000    5.00     3.08   1.30366  2.7437
 2.15000    5.02     3.07   1.29055  2.7436
 2.10000    5.04     3.09   1.29249  2.7435
 2.05000    5.06     3.09   1.29661  2.7434
 2.00000    5.08     3.08   1.29559  2.7436
 1.95000    5.10     3.08   1.30047  2.7437
 1.90000    5.11     3.08   1.28214  2.7440
 1.85000    5.13     3.11   1.29113  2.7443
 1.80000    5.15     3.08   1.29078  2.7452
 1.75000    5.15     3.07   1.30170  2.7454
 1.70000    5.16     3.07   1.30095  2.7458
 1.65000    5.17     3.06   1.30912  2.7459
 1.60000    5.18     3.08   1.32388  2.7455
 1.55000    5.19     3.07   1.32607  2.7451
 1.50000    5.20     3.06   1.33078  2.7448
 1.45000    5.21     3.07   1.33270  2.7446
 1.40000    5.22     3.05   1.34095  2.7440
 1.35000    5.22     3.05   1.34438  2.7438
 1.30000    5.22     3.05   1.33984  2.7436
 1.25000    5.22     3.04   1.34112  2.7434
 1.20000    5.22     3.03   1.34230  2.7433
 1.15000    5.21     3.03   1.33818  2.7432
 1.10000    5.20     3.03   1.34288  2.7430
 1.05000    5.19     3.02   1.34142  2.7429
 1.00000    5.18     3.02   1.34303  2.7427
 0.95000    5.18     3.02   1.34413  2.7427
 0.90000    5.16     3.03   1.34343  2.7426
 0.85000    5.16     3.02   1.34591  2.7423
 0.80000    5.15     3.01   1.34505  2.7421
 0.75000    5.14     3.01   1.34683  2.7420
 0.70000    5.13     3.01   1.35319  2.7418
 0.65000    5.12     3.02   1.34049  2.7418
 0.60000    5.12     3.01   1.35269  2.7416
 0.55000    5.10     3.01   1.35865  2.7417
 0.50000    5.08     3.00   1.35112  2.7413
 0.45000    5.07     3.00   1.35288  2.7415
 0.40000    5.05     3.01   1.35742  2.7416
 0.35000    5.03     2.99   1.34892  2.7415
 0.30000    5.01     2.99   1.36230  2.7414
 0.25000    4.99     3.01   1.35556  2.7415
 0.20000    4.98     2.99   1.35786  2.7412
 0.15000    4.97     2.99   1.36052  2.7412
 0.10000    4.95     2.99   1.35336  2.7414
 0.05000    4.95     2.99   1.35181  2.7414
-0.00000    4.95     3.01   1.36282  2.7413
