 Field[T] Tsmpl[K] Tcntr[K] Signal   Mirror[MM]
 0.00000    5.09     2.95   1.95427  2.3605
 0.05000    5.09     2.95   1.95270  2.3606
 0.10000    5.08     2.94   1.95380  2.3603
 0.15000    5.07     2.94   1.94851  2.3615
 0.20000    5.05     2.95   1.95390  2.3606
 0.25000    5.05     2.95   1.95730  2.3605
 0.30000    5.03     2.93   1.95806  2.3601
 0.35000    5.02     2.95   1.95874  2.3605
 0.40000    5.02     2.96   1.95911  2.3605
 0.45000    5.02     2.95   1.95786  2.3607
 0.50000    5.02     2.97   1.95831  2.3607
 0.55000    5.02     2.95   1.95585  2.3607
 0.60000    5.02     2.95   1.95538  2.3608
 0.65000    5.01     2.95   1.95735  2.3608
 0.70000    5.01     2.94   1.95455  2.3608
 0.75000    5.01     2.95   1.95488  2.3612
 0.80000    5.00     2.95   1.95358  2.3613
 0.85000    5.00     2.94   1.95298  2.3616
 0.90000    4.98     2.94   1.95255  2.3616
 0.95000    4.98     2.94   1.95130  2.3617
 1.00000    4.97     2.94   1.95020  2.3616
 1.05000    4.96     2.95   1.94838  2.3620
 1.10000    4.96     2.92   1.94741  2.3619
 1.15000    4.94     2.92   1.94512  2.3620
 1.20000    4.94     2.94   1.94310  2.3623
 1.25000    4.95     2.94   1.93943  2.3624
 1.30000    4.95     2.95   1.93765  2.3626
 1.35000    4.95     2.94   1.93215  2.3625
 1.40000    4.95     2.94   1.92667  2.3626
 1.45000    4.95     2.96   1.92353  2.3623
 1.50000    4.96     2.95   1.91758  2.3621
 1.55000    4.96     2.96   1.91681  2.3615
 1.60000    4.96     2.97   1.91513  2.3611
 1.65000    4.96     2.96   1.92293  2.3604
 1.70000    4.95     2.96   1.92755  2.3604
 1.75000    4.95     2.96   1.93204  2.3603
 1.80000    4.95     2.97   1.93603  2.3604
 1.85000    4.93     2.95   1.93816  2.3608
 1.90000    4.92     2.96   1.94176  2.3605
 1.95000    4.91     2.96   1.94368  2.3601
 2.00000    4.90     2.96   1.94592  2.3602
 2.05000    4.89     2.97   1.94261  2.3606
 2.10000    4.88     2.99   1.94400  2.3604
 2.15000    4.88     2.98   1.94613  2.3605
 2.20000    4.88     2.98   1.94829  2.3608
 2.25000    4.87     3.00   1.94769  2.3607
 2.30000    4.87     2.98   1.95052  2.3613
 2.35000    4.87     2.99   1.94983  2.3615
 2.40000    4.87     2.99   1.95153  2.3614
 2.45000    4.87     2.99   1.95226  2.3615
 2.50000    4.87     3.01   1.95216  2.3614
 2.55000    4.87     2.99   1.95354  2.3615
 2.60000    4.87     3.00   1.95450  2.3618
 2.65000    4.87     3.01   1.95558  2.3618
 2.70000    4.88     3.00   1.95720  2.3616
 2.75000    4.88     3.01   1.95709  2.3620
 2.80000    4.88     3.00   1.95859  2.3622
 2.85000    4.88     3.00   1.95970  2.3625
 2.90000    4.89     2.99   1.96141  2.3622
 2.95000    4.89     3.01   1.96089  2.3624
 3.00000    4.90     3.02   1.96181  2.3626
 3.00000    4.90     2.99   1.96167  2.3626
 2.95000    4.91     3.01   1.95866  2.3625
 2.90000    4.92     3.02   1.96003  2.3620
 2.85000    4.94     3.02   1.96105  2.3617
 2.80000    4.96     3.04   1.96079  2.3617
 2.75000    4.98     3.03   1.96063  2.3617
 2.70000    5.01     3.03   1.96159  2.3617
 2.65000    5.03     3.03   1.96195  2.3617
 2.60000    5.06     3.06   1.96265  2.3616
 2.55000    5.09     3.05   1.96366  2.3614
 2.50000    5.10     3.05   1.96313  2.3612
 2.45000    5.11     3.06   1.96520  2.3615
 2.40000    5.13     3.06   1.96445  2.3611
 2.35000    5.14     3.06   1.96154  2.3605
 2.30000    5.16     3.05   1.96606  2.3598
 2.25000    5.16     3.04   1.96407  2.3603
 2.20000    5.17     3.05   1.96487  2.3603
 2.15000    5.18     3.05   1.96379  2.3605
 2.10000    5.19     3.06   1.96316  2.3605
 2.05000    5.19     3.04   1.96231  2.3602
 2.00000    5.20     3.05   1.96206  2.3601
 1.95000    5.21     3.06   1.96107  2.3596
 1.90000    5.22     3.05   1.96112  2.3595
 1.85000    5.23     3.04   1.96067  2.3595
 1.80000    5.23     3.03   1.95765  2.3597
 1.75000    5.23     3.04   1.95235  2.3596
 1.70000    5.24     3.06   1.95214  2.3590
 1.65000    5.25     3.04   1.94855  2.3595
 1.60000    5.26     3.03   1.94408  2.3597
 1.55000    5.26     3.04   1.94266  2.3603
 1.50000    5.27     3.04   1.94352  2.3609
 1.45000    5.28     3.04   1.95086  2.3614
 1.40000    5.30     3.03   1.95633  2.3617
 1.35000    5.30     3.03   1.96145  2.3618
 1.30000    5.31     3.04   1.96806  2.3618
 1.25000    5.32     3.01   1.96957  2.3617
 1.20000    5.32     3.02   1.97238  2.3616
 1.15000    5.32     3.03   1.97771  2.3614
 1.10000    5.33     3.01   1.98073  2.3611
 1.05000    5.33     3.01   1.98099  2.3611
 1.00000    5.32     3.00   1.98354  2.3612
 0.95000    5.32     3.02   1.98571  2.3612
 0.90000    5.32     3.00   1.98652  2.3610
 0.85000    5.31     3.01   1.98823  2.3608
 0.80000    5.30     3.00   1.98876  2.3608
 0.75000    5.29     3.00   1.98944  2.3609
 0.70000    5.28     3.02   1.99168  2.3607
 0.65000    5.27     3.00   1.99036  2.3608
 0.60000    5.26     3.00   1.99346  2.3606
 0.55000    5.23     2.99   1.99390  2.3603
 0.50000    5.22     3.00   1.99442  2.3601
 0.45000    5.20     3.00   1.99530  2.3603
 0.40000    5.18     3.00   1.99441  2.3600
 0.35000    5.16     3.01   1.99565  2.3604
 0.30000    5.16     3.00   1.99553  2.3602
 0.25000    5.14     3.00   1.99576  2.3603
 0.20000    5.11     3.00   1.99709  2.3603
 0.15000    5.10     2.99   1.99466  2.3606
 0.10000    5.08     2.99   1.99529  2.3604
 0.05000    5.08     3.00   1.99897  2.3605
-0.00000    5.07     2.98   1.99890  2.3607
