 Field[T] Tsmpl[K] Tcntr[K] Signal Mirror[MM] RefSignal
 0.00000    4.74     2.86   2.60910  2.8274   4.70635
 0.05000    4.71     2.85   2.60918  2.8275   4.70798
 0.10000    4.68     2.86   2.60910  2.8277   4.70475
 0.15000    4.64     2.87   2.60830  2.8277   4.70572
 0.20000    4.63     2.85   2.60735  2.8278   4.70503
 0.25000    4.61     2.86   2.60793  2.8278   4.70444
 0.30000    4.59     2.85   2.60717  2.8279   4.70411
 0.35000    4.57     2.86   2.60615  2.8280   4.70278
 0.40000    4.55     2.87   2.60508  2.8280   4.70381
 0.45000    4.53     2.86   2.60513  2.8282   4.70139
 0.50000    4.51     2.87   2.60435  2.8281   4.70049
 0.55000    4.50     2.88   2.60289  2.8283   4.69971
 0.60000    4.48     2.88   2.60213  2.8284   4.70082
 0.65000    4.46     2.86   2.60114  2.8285   4.70021
 0.70000    4.45     2.88   2.60036  2.8286   4.69929
 0.75000    4.44     2.89   2.59880  2.8286   4.69912
 0.80000    4.43     2.90   2.59738  2.8287   4.69734
 0.85000    4.42     2.89   2.59501  2.8287   4.69841
 0.90000    4.42     2.90   2.59381  2.8287   4.69601
 0.95000    4.41     2.89   2.59158  2.8288   4.69668
 1.00000    4.40     2.92   2.58972  2.8287   4.69518
 1.05000    4.40     2.91   2.58625  2.8288   4.69301
 1.10000    4.40     2.93   2.58388  2.8289   4.69505
 1.15000    4.40     2.90   2.58085  2.8290   4.69525
 1.20000    4.39     2.92   2.57722  2.8287   4.69437
 1.25000    4.39     2.92   2.57408  2.8287   4.69139
 1.30000    4.38     2.93   2.57079  2.8285   4.69323
 1.35000    4.38     2.91   2.56749  2.8284   4.69355
 1.40000    4.38     2.92   2.56575  2.8283   4.69135
 1.45000    4.37     2.91   2.56330  2.8279   4.69297
 1.50000    4.36     2.90   2.56153  2.8277   4.69128
 1.55000    4.35     2.91   2.55071  2.8288   4.69150
 1.60000    4.34     2.91   2.55766  2.8276   4.68988
 1.65000    4.33     2.92   2.55907  2.8272   4.68984
 1.70000    4.33     2.93   2.55977  2.8270   4.68973
 1.75000    4.34     2.93   2.56068  2.8267   4.69201
 1.80000    4.36     2.95   2.56079  2.8265   4.69012
 1.85000    4.37     2.92   2.56108  2.8263   4.68743
 1.90000    4.37     2.93   2.56367  2.8261   4.68875
 1.95000    4.37     2.93   2.56418  2.8262   4.68894
 2.00000    4.37     2.94   2.56550  2.8261   4.68774
 2.05000    4.37     2.95   2.56578  2.8259   4.68862
 2.10000    4.36     2.93   2.56830  2.8253   4.68504
 2.15000    4.36     2.94   2.57066  2.8250   4.68444
 2.20000    4.36     2.95   2.56776  2.8254   4.68521
 2.25000    4.37     2.95   2.57336  2.8243   4.68534
 2.30000    4.37     2.94   2.57272  2.8245   4.68429
 2.35000    4.38     2.97   2.57523  2.8248   4.68398
 2.40000    4.38     2.97   2.57664  2.8249   4.68554
 2.45000    4.39     2.96   2.57619  2.8245   4.68395
 2.50000    4.41     2.97   2.57823  2.8242   4.68278
 2.55000    4.41     2.98   2.57932  2.8239   4.68039
 2.60000    4.43     2.99   2.58053  2.8242   4.67967
 2.65000    4.44     2.99   2.58111  2.8243   4.68099
 2.70000    4.45     2.98   2.58244  2.8242   4.68158
 2.75000    4.46     2.99   2.58391  2.8241   4.68144
 2.80000    4.47     3.00   2.58441  2.8243   4.68144
 2.85000    4.47     2.99   2.58481  2.8244   4.68149
 2.90000    4.49     3.00   2.58560  2.8245   4.68118
 2.95000    4.50     2.99   2.58567  2.8242   4.68325
 3.00000    4.51     3.00   2.58695  2.8241   4.68193
 3.05000    4.53     3.00   2.58733  2.8242   4.68212
 3.10000    4.55     3.01   2.58826  2.8241   4.68011
 3.15000    4.56     3.00   2.58863  2.8242   4.67961
 3.20000    4.57     3.01   2.58873  2.8242   4.68017
 3.25000    4.58     3.00   2.58951  2.8241   4.67816
 3.30000    4.59     3.01   2.59010  2.8242   4.67882
 3.35000    4.59     3.02   2.59128  2.8243   4.67683
 3.40000    4.59     3.02   2.59118  2.8244   4.67795
 3.45000    4.60     3.02   2.59110  2.8245   4.67767
 3.50000    4.61     3.03   2.59159  2.8244   4.67698
 3.55000    4.62     3.04   2.59299  2.8244   4.67737
 3.60000    4.64     3.03   2.59255  2.8243   4.67664
 3.65000    4.65     3.04   2.59239  2.8245   4.67562
 3.70000    4.66     3.04   2.59290  2.8245   4.67788
 3.75000    4.67     3.04   2.59303  2.8247   4.67683
 3.80000    4.68     3.06   2.59281  2.8247   4.67497
 3.85000    4.69     3.05   2.59295  2.8245   4.67542
 3.90000    4.70     3.05   2.59303  2.8246   4.67313
 3.95000    4.72     3.04   2.59342  2.8247   4.67437
 4.00000    4.72     3.05   2.59293  2.8247   4.67454
 4.05000    4.74     3.04   2.59316  2.8245   4.67311
 4.10000    4.75     3.05   2.59337  2.8247   4.67238
 4.15000    4.75     3.03   2.59252  2.8249   4.67092
 4.20000    4.76     3.04   2.59283  2.8249   4.67418
 4.25000    4.76     3.05   2.59366  2.8249   4.67116
 4.30000    4.77     3.04   2.59348  2.8250   4.67108
 4.35000    4.78     3.03   2.59338  2.8250   4.67371
 4.40000    4.78     3.03   2.59324  2.8249   4.67074
 4.45000    4.79     3.03   2.59298  2.8250   4.67084
 4.50000    4.79     3.03   2.59277  2.8248   4.66857
 4.55000    4.80     3.03   2.59250  2.8250   4.66970
 4.60000    4.80     3.03   2.59205  2.8251   4.66951
 4.65000    4.81     3.02   2.59243  2.8252   4.66945
 4.70000    4.81     3.01   2.59226  2.8251   4.66833
 4.75000    4.82     3.02   2.59258  2.8252   4.67107
 4.80000    4.83     3.03   2.59248  2.8251   4.66900
 4.85000    4.84     3.01   2.59153  2.8252   4.66905
 4.90000    4.84     3.03   2.59180  2.8253   4.66967
 4.95000    4.85     3.00   2.59114  2.8252   4.66823
 5.00000    4.86     3.03   2.59173  2.8253   4.66950
