 Field[T] Tsmpl[K] Tcntr[K] Signal Mirror[MM] RefSignal
 5.00000    5.05     3.05   1.71642  2.8070   2.73271
 4.95000    5.07     3.05   1.71725  2.8069   2.73063
 4.90000    5.09     3.06   1.71742  2.8069   2.73279
 4.85000    5.12     3.06   1.71762  2.8069   2.73262
 4.80000    5.14     3.08   1.71776  2.8068   2.73172
 4.75000    5.16     3.09   1.71842  2.8068   2.73018
 4.70000    5.19     3.08   1.71863  2.8065   2.73157
 4.65000    5.21     3.09   1.71848  2.8066   2.73098
 4.60000    5.24     3.09   1.71881  2.8064   2.73151
 4.55000    5.26     3.09   1.71899  2.8064   2.73226
 4.50000    5.27     3.09   1.71930  2.8064   2.73266
 4.45000    5.30     3.10   1.71911  2.8064   2.73161
 4.40000    5.32     3.09   1.71989  2.8064   2.73523
 4.35000    5.34     3.11   1.71987  2.8064   2.73329
 4.30000    5.38     3.10   1.72048  2.8061   2.73166
 4.25000    5.40     3.09   1.71981  2.8061   2.73304
 4.20000    5.43     3.10   1.71969  2.8062   2.73247
 4.15000    5.45     3.09   1.72035  2.8064   2.73158
 4.10000    5.47     3.09   1.71989  2.8064   2.73144
 4.05000    5.49     3.11   1.72007  2.8062   2.73414
 4.00000    5.52     3.11   1.72121  2.8061   2.73375
 3.95000    5.55     3.10   1.72088  2.8062   2.73512
 3.90000    5.57     3.10   1.72030  2.8063   2.73394
 3.85000    5.59     3.09   1.72023  2.8064   2.73308
 3.80000    5.61     3.09   1.72103  2.8061   2.73567
 3.75000    5.62     3.09   1.72033  2.8062   2.73425
 3.70000    5.64     3.09   1.72123  2.8061   2.73479
 3.65000    5.65     3.09   1.72169  2.8060   2.73432
 3.60000    5.66     3.08   1.72132  2.8061   2.73624
 3.55000    5.67     3.07   1.72091  2.8059   2.73509
 3.50000    5.68     3.07   1.72120  2.8059   2.73542
 3.45000    5.68     3.07   1.72147  2.8058   2.73649
 3.40000    5.70     3.08   1.72092  2.8059   2.73456
 3.35000    5.70     3.05   1.72105  2.8058   2.73499
 3.30000    5.71     3.05   1.72077  2.8059   2.73560
 3.25000    5.72     3.05   1.72063  2.8059   2.73837
 3.20000    5.72     3.05   1.71974  2.8059   2.73510
 3.15000    5.73     3.06   1.71956  2.8057   2.73777
 3.10000    5.74     3.05   1.71992  2.8058   2.73579
 3.05000    5.73     3.04   1.71972  2.8057   2.73652
 3.00000    5.73     3.03   1.71916  2.8057   2.73777
 2.95000    5.71     3.03   1.71925  2.8056   2.73725
 2.90000    5.70     3.04   1.71863  2.8056   2.73850
 2.85000    5.69     3.01   1.71837  2.8055   2.73959
 2.80000    5.67     3.01   1.71720  2.8056   2.73887
 2.75000    5.65     3.00   1.71716  2.8056   2.74008
 2.70000    5.64     3.01   1.71673  2.8055   2.74017
 2.65000    5.63     3.02   1.71598  2.8059   2.73939
 2.60000    5.61     3.00   1.71583  2.8057   2.74023
 2.55000    5.60     2.99   1.71521  2.8057   2.74028
 2.50000    5.59     3.00   1.71477  2.8058   2.73962
 2.45000    5.58     3.01   1.71396  2.8059   2.74004
 2.40000    5.57     3.00   1.71312  2.8059   2.74048
 2.35000    5.57     3.00   1.71225  2.8059   2.74166
 2.30000    5.55     3.00   1.71127  2.8061   2.74141
 2.25000    5.55     3.02   1.71088  2.8061   2.74155
 2.20000    5.54     3.00   1.70993  2.8061   2.73999
 2.15000    5.54     3.00   1.70995  2.8061   2.74157
 2.10000    5.53     2.99   1.70920  2.8062   2.74047
 2.05000    5.52     3.00   1.70830  2.8062   2.74100
 2.00000    5.52     3.01   1.70770  2.8066   2.74197
 1.95000    5.51     3.00   1.70676  2.8065   2.74057
 1.90000    5.51     2.99   1.70631  2.8067   2.74250
 1.85000    5.50     2.99   1.70512  2.8069   2.74310
 1.80000    5.50     3.00   1.70464  2.8069   2.74168
 1.75000    5.49     3.00   1.70412  2.8071   2.74236
 1.70000    5.49     3.01   1.70363  2.8074   2.74286
 1.65000    5.49     3.00   1.70290  2.8077   2.74324
 1.60000    5.47     3.00   1.70249  2.8079   2.74501
 1.55000    5.46     3.00   1.70256  2.8082   2.74377
 1.50000    5.44     3.01   1.70317  2.8084   2.74346
 1.45000    5.43     3.02   1.70388  2.8085   2.74313
 1.40000    5.41     2.99   1.70480  2.8085   2.74465
 1.35000    5.40     2.99   1.70606  2.8088   2.74443
 1.30000    5.38     2.99   1.70766  2.8090   2.74421
 1.25000    5.37     2.99   1.70918  2.8091   2.74449
 1.20000    5.36     3.00   1.71098  2.8094   2.74533
 1.15000    5.35     3.01   1.71312  2.8093   2.74598
 1.10000    5.35     3.00   1.71475  2.8095   2.74503
 1.05000    5.33     3.00   1.71634  2.8095   2.74690
 1.00000    5.33     3.01   1.71856  2.8097   2.74630
 0.95000    5.33     3.01   1.72080  2.8097   2.74716
 0.90000    5.33     3.00   1.72212  2.8096   2.74672
 0.85000    5.32     2.99   1.72339  2.8096   2.74614
 0.80000    5.32     3.00   1.72481  2.8094   2.74570
 0.75000    5.31     2.98   1.72586  2.8094   2.74622
 0.70000    5.31     3.00   1.72665  2.8094   2.74817
 0.65000    5.31     3.00   1.72744  2.8094   2.74766
 0.60000    5.31     3.00   1.72903  2.8093   2.74832
 0.55000    5.30     2.99   1.72924  2.8091   2.74947
 0.50000    5.30     2.99   1.73004  2.8092   2.74834
 0.45000    5.30     3.01   1.73071  2.8090   2.74741
 0.40000    5.30     3.00   1.73196  2.8090   2.75042
 0.35000    5.29     2.99   1.73156  2.8090   2.74832
 0.30000    5.28     2.99   1.73247  2.8091   2.74848
 0.25000    5.27     2.99   1.73237  2.8089   2.74880
 0.20000    5.26     3.01   1.73310  2.8086   2.74946
 0.15000    5.25     2.98   1.73327  2.8088   2.74828
 0.10000    5.24     2.98   1.73396  2.8087   2.74894
 0.05000    5.21     2.98   1.73373  2.8085   2.75131
-0.00000    5.18     2.98   1.73352  2.8085   2.75003
