 Field[T] Tsmpl[K] Tcntr[K] Signal Mirror[MM] RefSignal
 6.00000    5.24     3.01   1.65033  3.3063   0.94605
 5.95000    5.24     3.01   1.64995  3.3063   0.94420
 5.90000    5.25     3.02   1.64978  3.3062   0.94617
 5.85000    5.26     3.01   1.64979  3.3063   0.94419
 5.80000    5.27     3.01   1.65034  3.3064   0.94554
 5.75000    5.28     3.03   1.65131  3.3065   0.94654
 5.70000    5.29     3.03   1.65189  3.3066   0.94561
 5.65000    5.30     3.05   1.65236  3.3063   0.94556
 5.60000    5.33     3.06   1.65224  3.3061   0.94492
 5.55000    5.35     3.06   1.65230  3.3063   0.94593
 5.50000    5.36     3.06   1.65234  3.3066   0.94447
 5.45000    5.38     3.06   1.65331  3.3070   0.94681
 5.40000    5.39     3.08   1.65325  3.3068   0.94698
 5.35000    5.41     3.08   1.65336  3.3070   0.94671
 5.30000    5.41     3.07   1.65349  3.3073   0.94598
 5.25000    5.43     3.07   1.65351  3.3077   0.94651
 5.20000    5.44     3.07   1.65431  3.3073   0.94792
 5.15000    5.45     3.08   1.65554  3.3073   0.94598
 5.10000    5.47     3.10   1.65563  3.3070   0.94646
 5.05000    5.48     3.07   1.65529  3.3070   0.94718
 5.00000    5.49     3.07   1.65508  3.3071   0.94629
 4.95000    5.50     3.07   1.65535  3.3073   0.94787
 4.90000    5.51     3.06   1.65547  3.3073   0.94761
 4.85000    5.51     3.07   1.65527  3.3074   0.94822
 4.80000    5.53     3.07   1.65543  3.3073   0.94624
 4.75000    5.53     3.06   1.65588  3.3074   0.94796
 4.70000    5.54     3.07   1.65485  3.3076   0.94755
 4.65000    5.55     3.06   1.65498  3.3075   0.94908
 4.60000    5.56     3.05   1.65509  3.3072   0.94831
 4.55000    5.57     3.04   1.65503  3.3074   0.94728
 4.50000    5.57     3.05   1.65492  3.3075   0.94743
 4.45000    5.58     3.05   1.65438  3.3075   0.94705
 4.40000    5.59     3.04   1.65500  3.3075   0.94652
 4.35000    5.60     3.03   1.65517  3.3075   0.94731
 4.30000    5.60     3.03   1.65543  3.3074   0.94876
 4.25000    5.60     3.03   1.65586  3.3074   0.94821
 4.20000    5.61     3.04   1.65658  3.3075   0.94803
 4.15000    5.61     3.02   1.65645  3.3075   0.94746
 4.10000    5.61     3.02   1.65742  3.3074   0.94889
 4.05000    5.62     3.02   1.65749  3.3075   0.94899
 4.00000    5.62     3.03   1.65823  3.3074   0.94922
 3.95000    5.63     3.03   1.65841  3.3071   0.94917
 3.90000    5.63     3.02   1.65884  3.3068   0.94870
 3.85000    5.64     3.02   1.65926  3.3073   0.94901
 3.80000    5.64     3.02   1.65925  3.3070   0.94881
 3.75000    5.64     3.03   1.65897  3.3073   0.94985
 3.70000    5.65     3.02   1.65876  3.3074   0.94979
 3.65000    5.65     3.01   1.65893  3.3074   0.94962
 3.60000    5.66     3.01   1.65925  3.3075   0.94916
 3.55000    5.65     3.00   1.65959  3.3074   0.94978
 3.50000    5.65     3.02   1.65979  3.3075   0.94982
 3.45000    5.64     3.01   1.65996  3.3078   0.94983
 3.40000    5.63     3.01   1.66004  3.3081   0.94983
 3.35000    5.63     3.01   1.66006  3.3081   0.94918
 3.30000    5.61     3.01   1.66051  3.3079   0.94949
 3.25000    5.61     3.01   1.66084  3.3083   0.94986
 3.20000    5.61     3.01   1.66102  3.3083   0.94990
 3.15000    5.60     3.02   1.66127  3.3081   0.94761
 3.10000    5.60     3.01   1.66074  3.3083   0.94986
 3.05000    5.60     3.02   1.66118  3.3086   0.94822
 3.00000    5.60     3.03   1.66154  3.3086   0.94934
 2.95000    5.60     3.01   1.66149  3.3089   0.94858
 2.90000    5.60     3.01   1.66209  3.3083   0.95041
 2.85000    5.61     3.02   1.66164  3.3081   0.95154
 2.80000    5.61     3.01   1.66402  3.3079   0.95121
 2.75000    5.61     3.05   1.66419  3.3081   0.95044
 2.70000    5.68     3.38   1.66594  3.3084   0.94979
 2.65000    5.76     3.26   1.66712  3.3087   0.94974
 2.60000    5.84     3.24   1.66889  3.3090   0.95069
 2.55000    5.90     3.21   1.67004  3.3093   0.94862
 2.50000    5.95     3.18   1.67210  3.3093   0.95000
 2.45000    5.99     3.16   1.67369  3.3094   0.94983
 2.40000    6.01     3.14   1.67534  3.3092   0.94719
 2.35000    6.03     3.12   1.67700  3.3093   0.94964
 2.30000    6.04     3.10   1.67831  3.3092   0.94957
 2.25000    6.04     3.09   1.67909  3.3091   0.94938
 2.20000    6.03     3.07   1.67953  3.3089   0.94892
 2.15000    6.02     3.08   1.68069  3.3089   0.94938
 2.10000    6.01     3.06   1.68149  3.3088   0.94659
 2.05000    6.00     3.03   1.68247  3.3089   0.94830
 2.00000    5.98     3.04   1.68508  3.3092   0.95085
 1.95000    5.96     3.02   1.68570  3.3093   0.94927
 1.90000    5.93     3.03   1.68706  3.3093   0.94963
 1.85000    5.91     3.02   1.68764  3.3093   0.94975
 1.80000    5.89     3.02   1.68868  3.3092   0.94925
 1.75000    5.87     3.02   1.68824  3.3092   0.94898
 1.70000    5.85     3.00   1.68808  3.3091   0.94927
 1.65000    5.82     3.00   1.68754  3.3092   0.94776
 1.60000    5.80     2.99   1.68700  3.3094   0.94919
 1.55000    5.78     3.00   1.68728  3.3092   0.94897
 1.50000    5.77     3.00   1.68761  3.3092   0.94705
 1.45000    5.75     2.99   1.68771  3.3090   0.94843
 1.40000    5.73     2.99   1.68839  3.3086   0.94754
 1.35000    5.72     2.98   1.68783  3.3087   0.94866
 1.30000    5.70     2.98   1.68804  3.3086   0.94762
 1.25000    5.68     3.00   1.68829  3.3085   0.94990
 1.20000    5.67     2.99   1.68864  3.3085   0.94854
 1.15000    5.66     2.98   1.68887  3.3085   0.94900
 1.10000    5.65     2.99   1.68870  3.3083   0.94846
 1.05000    5.64     2.99   1.68882  3.3081   0.94831
 1.00000    5.63     3.00   1.68899  3.3082   0.94977
 0.95000    5.63     2.99   1.68868  3.3077   0.94807
 0.90000    5.62     3.00   1.68784  3.3077   0.94957
 0.85000    5.61     2.98   1.68614  3.3085   0.94763
 0.80000    5.60     2.98   1.68706  3.3077   0.94879
 0.75000    5.59     2.98   1.68675  3.3075   0.94921
 0.70000    5.58     2.98   1.68654  3.3076   0.94851
 0.65000    5.57     2.96   1.68694  3.3074   0.94857
 0.60000    5.56     2.96   1.68648  3.3074   0.94828
 0.55000    5.54     2.95   1.68699  3.3075   0.94977
 0.50000    5.53     2.95   1.68729  3.3073   0.94901
 0.45000    5.51     2.96   1.68692  3.3075   0.94942
 0.40000    5.50     2.95   1.68711  3.3078   0.94866
 0.35000    5.48     2.94   1.68667  3.3079   0.94946
 0.30000    5.47     2.95   1.68571  3.3078   0.95048
 0.25000    5.46     2.96   1.68508  3.3076   0.94914
 0.20000    5.44     2.94   1.68484  3.3073   0.95064
 0.15000    5.42     2.95   1.68491  3.3069   0.94893
 0.10000    5.41     2.94   1.68430  3.3072   0.94996
 0.05000    5.39     2.92   1.68345  3.3072   0.94933
-0.00000    5.37     2.92   1.68292  3.3074   0.95032
