 Field[T] Tsmpl[K] Tcntr[K] Signal Mirror[MM] RefSignal
 0.00000    4.25     2.95   2.22748  2.7939   1.95742
 0.05000    4.24     2.97   2.22871  2.7936   1.95704
 0.10000    4.24     2.97   2.22774  2.7937   1.95712
 0.15000    4.25     2.96   2.22654  2.7941   1.95733
 0.20000    4.24     2.95   2.22231  2.7945   1.95656
 0.25000    4.23     2.96   2.22625  2.7945   1.95763
 0.30000    4.23     2.95   2.22668  2.7942   1.95583
 0.35000    4.22     2.95   2.22563  2.7942   1.95514
 0.40000    4.21     2.95   2.22604  2.7943   1.95601
 0.45000    4.21     2.95   2.22514  2.7945   1.95720
 0.50000    4.21     2.96   2.22451  2.7944   1.95726
 0.55000    4.21     2.96   2.22356  2.7945   1.95710
 0.60000    4.21     2.97   2.22185  2.7946   1.95476
 0.65000    4.22     2.97   2.22017  2.7948   1.95592
 0.70000    4.22     2.97   2.21913  2.7947   1.95565
 0.75000    4.22     2.97   2.21739  2.7948   1.95485
 0.80000    4.22     2.94   2.21599  2.7949   1.95557
 0.85000    4.21     2.97   2.21454  2.7951   1.95477
 0.90000    4.21     2.95   2.21120  2.7955   1.95502
 0.95000    4.19     2.92   2.20873  2.7953   1.95441
 1.00000    4.18     2.95   2.20530  2.7955   1.95410
 1.05000    4.18     2.94   2.20310  2.7954   1.95519
 1.10000    4.16     2.94   2.19994  2.7951   1.95384
 1.15000    4.16     2.93   2.19758  2.7947   1.95558
 1.20000    4.15     2.93   2.19508  2.7948   1.95437
 1.25000    4.13     2.93   2.19216  2.7944   1.95440
 1.30000    4.12     2.93   2.19006  2.7942   1.95178
 1.35000    4.11     2.95   2.18841  2.7939   1.95341
 1.40000    4.11     2.94   2.18821  2.7935   1.95332
 1.45000    4.10     2.94   2.18680  2.7933   1.95397
 1.50000    4.09     2.93   2.18714  2.7932   1.95470
 1.55000    4.09     2.95   2.18653  2.7927   1.95360
 1.60000    4.09     2.95   2.18594  2.7921   1.95284
 1.65000    4.08     2.97   2.18675  2.7919   1.95510
 1.70000    4.09     2.97   2.18682  2.7919   1.95169
 1.75000    4.09     2.97   2.18773  2.7915   1.95351
 1.80000    4.10     2.97   2.18873  2.7912   1.95135
 1.85000    4.11     2.98   2.18817  2.7913   1.95033
 1.90000    4.11     2.98   2.18881  2.7912   1.95324
 1.95000    4.11     2.97   2.19050  2.7906   1.95210
 2.00000    4.12     2.99   2.19002  2.7905   1.95040
 2.05000    4.13     2.98   2.19322  2.7903   1.95108
 2.10000    4.13     2.99   2.19443  2.7902   1.95157
 2.15000    4.14     3.00   2.19544  2.7902   1.95219
 2.20000    4.15     2.98   2.19627  2.7905   1.95155
 2.25000    4.16     2.99   2.19750  2.7901   1.95152
 2.30000    4.16     3.01   2.19723  2.7900   1.94914
 2.35000    4.17     2.99   2.19858  2.7901   1.95034
 2.40000    4.17     3.00   2.19902  2.7898   1.95172
 2.45000    4.18     3.02   2.19910  2.7898   1.95015
 2.50000    4.18     3.00   2.19911  2.7895   1.95025
 2.55000    4.18     3.00   2.20083  2.7894   1.95159
 2.60000    4.19     3.02   2.20146  2.7897   1.94869
 2.65000    4.20     3.01   2.20212  2.7895   1.94900
 2.70000    4.20     3.01   2.20356  2.7894   1.95060
 2.75000    4.22     3.01   2.20383  2.7891   1.94942
 2.80000    4.24     3.02   2.20399  2.7897   1.94918
 2.85000    4.25     3.02   2.20406  2.7897   1.95203
 2.90000    4.28     3.02   2.20440  2.7893   1.95009
 2.95000    4.29     3.04   2.20613  2.7894   1.95037
 3.00000    4.32     3.03   2.20658  2.7892   1.94950
 3.05000    4.34     3.06   2.20684  2.7895   1.94945
 3.10000    4.36     3.05   2.20743  2.7894   1.94886
 3.15000    4.39     3.05   2.20732  2.7896   1.95024
 3.20000    4.41     3.04   2.20674  2.7898   1.94956
 3.25000    4.43     3.06   2.20710  2.7895   1.94844
 3.30000    4.45     3.06   2.20734  2.7898   1.94844
 3.35000    4.47     3.06   2.20703  2.7897   1.94842
 3.40000    4.48     3.07   2.20735  2.7897   1.94917
 3.45000    4.49     3.06   2.20691  2.7896   1.94861
 3.50000    4.50     3.07   2.20727  2.7897   1.94848
 3.55000    4.51     3.08   2.20781  2.7896   1.94946
 3.60000    4.52     3.07   2.20807  2.7896   1.94666
 3.65000    4.54     3.07   2.20774  2.7897   1.94766
 3.70000    4.55     3.07   2.20752  2.7899   1.94871
 3.75000    4.56     3.08   2.20811  2.7898   1.94851
 3.80000    4.58     3.08   2.20734  2.7899   1.94724
 3.85000    4.59     3.07   2.20756  2.7900   1.94827
 3.90000    4.61     3.08   2.20690  2.7900   1.94938
 3.95000    4.62     3.09   2.20652  2.7899   1.94760
 4.00000    4.63     3.07   2.20742  2.7899   1.94838
 4.05000    4.63     3.08   2.20710  2.7901   1.94902
 4.10000    4.64     3.07   2.20663  2.7902   1.94777
 4.15000    4.65     3.07   2.20800  2.7900   1.94797
 4.20000    4.66     3.06   2.20779  2.7899   1.94724
 4.25000    4.67     3.07   2.20648  2.7900   1.94789
 4.30000    4.68     3.08   2.20694  2.7900   1.94849
 4.35000    4.69     3.07   2.20702  2.7901   1.94967
 4.40000    4.70     3.08   2.20675  2.7902   1.94889
 4.45000    4.72     3.08   2.20667  2.7906   1.94915
 4.50000    4.73     3.06   2.20661  2.7906   1.94821
 4.55000    4.74     3.05   2.20533  2.7908   1.94824
 4.60000    4.74     3.05   2.20629  2.7907   1.94752
 4.65000    4.74     3.06   2.20580  2.7903   1.94847
 4.70000    4.75     3.06   2.20473  2.7903   1.94813
 4.75000    4.77     3.05   2.20495  2.7902   1.94860
 4.80000    4.78     3.05   2.20520  2.7902   1.94760
 4.85000    4.79     3.04   2.20381  2.7902   1.94862
 4.90000    4.80     3.05   2.20300  2.7903   1.94621
 4.95000    4.80     3.04   2.20431  2.7904   1.94757
 5.00000    4.81     3.03   2.20320  2.7903   1.94758
