 Field[T] Tsmpl[K] Tcntr[K] Signal
 7.00000    1.85     1.88   5.12530
 6.95000    1.85     1.88   5.14040
 6.90000    1.85     1.88   5.14670
 6.85000    1.85     1.88   5.15040
 6.80000    1.85     1.88   5.10850
 6.75000    1.85     1.88   5.07420
 6.70000    1.85     1.88   5.04760
 6.65000    1.85     1.88   5.07420
 6.60000    1.85     1.88   5.04930
 6.55000    1.85     1.88   5.06000
 6.50000    1.85     1.88   5.03490
 6.45000    1.85     1.88   5.01370
 6.40000    1.85     1.87   4.99070
 6.35000    1.85     1.87   4.95900
 6.30000    1.85     1.87   4.92600
 6.25000    1.85     1.87   4.90150
 6.20000    1.85     1.87   4.90120
 6.15000    1.85     1.87   4.90940
 6.10000    1.85     1.87   4.89690
 6.05000    1.85     1.87   4.88980
 6.00000    1.85     1.87   4.87560
 5.95000    1.85     1.87   4.85820
 5.90000    1.85     1.87   4.83650
 5.85000    1.85     1.87   4.81510
 5.80000    1.85     1.87   4.79420
 5.75000    1.85     1.87   4.77720
 5.70000    1.85     1.87   4.72860
 5.65000    1.85     1.87   4.71740
 5.60000    1.85     1.87   4.69870
 5.55000    1.85     1.87   4.64800
 5.50000    1.85     1.87   4.63040
 5.45000    1.85     1.87   4.58110
 5.40000    1.85     1.87   4.52380
 5.35000    1.85     1.87   4.47610
 5.30000    1.85     1.87   4.43830
 5.25000    1.85     1.87   4.37940
 5.20000    1.85     1.87   4.31240
 5.15000    1.85     1.87   4.25290
 5.10000    1.85     1.87   4.18210
 5.05000    1.85     1.87   4.13420
 5.00000    1.85     1.87   4.04550
 4.95000    1.85     1.87   3.98960
 4.90000    1.85     1.87   3.92240
 4.85000    1.85     1.87   3.85260
 4.80000    1.84     1.87   3.80250
 4.75000    1.84     1.87   3.73750
 4.70000    1.84     1.87   3.69790
 4.65000    1.84     1.87   3.64410
 4.60000    1.84     1.87   3.63490
 4.55000    1.84     1.87   3.62370
 4.50000    1.84     1.86   3.64390
 4.45000    1.84     1.86   3.69070
 4.40000    1.84     1.86   3.77760
 4.35000    1.84     1.86   3.91040
 4.30000    1.84     1.86   4.07190
 4.25000    1.84     1.86   4.28830
 4.20000    1.84     1.86   4.55960
 4.15000    1.84     1.86   4.83440
 4.10000    1.84     1.86   5.10940
 4.05000    1.84     1.86   5.33490
 4.00000    1.84     1.86   5.45910
 3.95000    1.84     1.86   5.55310
 3.90000    1.84     1.86   5.58150
 3.85000    1.84     1.86   5.60740
 3.80000    1.84     1.86   5.62770
 3.75000    1.84     1.86   5.61930
 3.70000    1.84     1.86   5.60170
 3.65000    1.84     1.86   5.60490
 3.60000    1.84     1.86   5.57440
 3.55000    1.84     1.86   5.52880
 3.50000    1.84     1.86   5.54530
 3.45000    1.84     1.86   5.45900
 3.40000    1.84     1.86   5.44270
 3.35000    1.84     1.86   5.42820
 3.30000    1.84     1.86   5.36790
 3.25000    1.84     1.85   5.33680
 3.20000    1.84     1.85   5.30770
 3.15000    1.84     1.85   5.27230
 3.10000    1.84     1.85   5.29680
 3.05000    1.84     1.85   5.32410
 3.00000    1.84     1.85   5.31620
 2.95000    1.84     1.85   5.30150
 2.90000    1.84     1.85   5.32510
 2.85000    1.84     1.85   5.30150
 2.80000    1.83     1.85   5.30510
 2.75000    1.83     1.85   5.29130
 2.70000    1.83     1.85   5.29110
 2.65000    1.83     1.85   5.29090
 2.60000    1.83     1.85   5.29360
 2.55000    1.83     1.85   5.26680
 2.50000    1.83     1.85   5.24420
 2.45000    1.83     1.85   5.23050
 2.40000    1.83     1.85   5.23310
 2.35000    1.83     1.85   5.21550
 2.30000    1.83     1.85   5.19770
 2.25000    1.83     1.85   5.17610
 2.20000    1.83     1.84   5.17290
 2.15000    1.83     1.84   5.15750
 2.10000    1.83     1.84   5.17920
 2.05000    1.83     1.84   5.19980
 2.00000    1.82     1.84   5.18010
 1.95000    1.82     1.84   5.18030
 1.90000    1.82     1.84   5.16290
 1.85000    1.82     1.84   5.15170
 1.80000    1.82     1.84   5.14920
 1.75000    1.82     1.84   5.16550
 1.70000    1.82     1.84   5.16070
 1.65000    1.82     1.84   5.14270
 1.60000    1.82     1.84   5.14190
 1.55000    1.82     1.84   5.13200
 1.50000    1.82     1.84   5.12870
 1.45000    1.82     1.84   5.11020
 1.40000    1.82     1.84   5.08990
 1.35000    1.82     1.84   5.09290
 1.30000    1.82     1.84   5.08060
 1.25000    1.82     1.84   5.10330
 1.20000    1.82     1.84   5.11340
 1.15000    1.82     1.84   5.12300
 1.10000    1.81     1.84   5.14310
 1.05000    1.81     1.84   5.13840
 1.00000    1.81     1.83   5.13310
 0.95000    1.81     1.83   5.13980
 0.90000    1.81     1.83   5.12460
 0.85000    1.81     1.83   5.12950
 0.80000    1.81     1.83   5.12990
 0.75000    1.81     1.83   5.12620
 0.70000    1.81     1.83   5.13500
 0.65000    1.81     1.83   5.13310
 0.60000    1.81     1.83   5.13470
 0.55000    1.81     1.83   5.13610
 0.50000    1.81     1.83   5.13510
 0.45000    1.81     1.83   5.14550
 0.40000    1.81     1.83   5.13620
 0.35000    1.81     1.83   5.12190
 0.30000    1.81     1.83   5.12380
 0.25000    1.80     1.83   5.12310
 0.20000    1.80     1.83   5.12440
 0.15000    1.80     1.83   5.13030
 0.10000    1.80     1.83   5.12500
 0.05000    1.80     1.83   5.12030
-0.00000    1.80     1.83   5.12060
