 Field[T] Tsmpl[K] Tcntr[K] Signal   Mirror[MM]
 0.00000    4.69     2.93   1.67441  0.8656
 0.05000    4.68     2.94   1.67516  0.8657
 0.10000    4.66     2.93   1.68013  0.8644
 0.15000    4.66     2.95   1.67979  0.8652
 0.20000    4.65     2.94   1.68392  0.8647
 0.25000    4.65     2.95   1.68368  0.8643
 0.30000    4.65     2.94   1.68579  0.8635
 0.35000    4.64     2.94   1.68546  0.8653
 0.40000    4.63     2.94   1.68849  0.8643
 0.45000    4.63     2.96   1.68629  0.8666
 0.50000    4.63     2.95   1.68801  0.8637
 0.55000    4.63     2.93   1.68841  0.8631
 0.60000    4.62     2.96   1.68744  0.8625
 0.65000    4.62     2.94   1.68974  0.8599
 0.70000    4.62     2.94   1.69316  0.8586
 0.75000    4.61     2.94   1.69494  0.8580
 0.80000    4.61     2.94   1.69897  0.8566
 0.85000    4.61     2.95   1.70163  0.8566
 0.90000    4.61     2.94   1.70641  0.8558
 0.95000    4.60     2.95   1.70897  0.8562
 1.00000    4.60     2.94   1.71520  0.8549
 1.05000    4.59     2.95   1.71713  0.8544
 1.10000    4.58     2.96   1.72233  0.8551
 1.15000    4.58     2.94   1.72470  0.8553
 1.20000    4.57     2.94   1.72840  0.8553
 1.25000    4.56     2.93   1.72939  0.8557
 1.30000    4.56     2.95   1.73390  0.8555
 1.35000    4.55     2.95   1.73549  0.8556
 1.40000    4.55     2.93   1.73776  0.8560
 1.45000    4.54     2.94   1.73814  0.8563
 1.50000    4.53     2.94   1.74051  0.8557
 1.55000    4.53     2.92   1.74370  0.8557
 1.60000    4.52     2.94   1.74538  0.8561
 1.65000    4.51     2.93   1.74670  0.8565
 1.70000    4.50     2.93   1.74906  0.8567
 1.75000    4.50     2.95   1.74960  0.8571
 1.80000    4.50     2.94   1.74983  0.8577
 1.85000    4.50     2.95   1.75057  0.8576
 1.90000    4.50     2.95   1.75273  0.8577
 1.95000    4.49     2.92   1.75201  0.8584
 2.00000    4.48     2.94   1.75490  0.8580
 2.05000    4.48     2.94   1.75547  0.8580
 2.10000    4.47     2.95   1.75523  0.8580
 2.15000    4.46     2.96   1.75579  0.8585
 2.20000    4.46     2.96   1.75611  0.8587
 2.25000    4.46     2.98   1.75654  0.8586
 2.30000    4.46     2.97   1.75802  0.8587
 2.35000    4.46     2.97   1.75690  0.8585
 2.40000    4.46     2.99   1.75906  0.8589
 2.45000    4.46     2.97   1.76090  0.8594
 2.50000    4.46     2.97   1.76081  0.8597
 2.55000    4.46     2.99   1.76114  0.8591
 2.60000    4.47     2.98   1.76094  0.8599
 2.65000    4.47     2.99   1.76153  0.8602
 2.70000    4.48     2.99   1.76396  0.8598
 2.75000    4.49     2.99   1.76441  0.8601
 2.80000    4.50     3.00   1.76218  0.8608
 2.85000    4.51     2.98   1.76498  0.8602
 2.90000    4.52     2.99   1.76326  0.8602
 2.95000    4.53     2.99   1.76493  0.8605
 3.00000    4.53     2.99   1.76402  0.8603
 3.05000    4.53     3.01   1.76457  0.8611
 3.10000    4.54     2.99   1.76225  0.8616
 3.15000    4.53     3.00   1.76355  0.8606
 3.20000    4.53     3.00   1.76284  0.8609
 3.25000    4.53     3.00   1.76500  0.8614
 3.30000    4.53     2.99   1.76386  0.8620
 3.35000    4.53     3.01   1.76471  0.8613
 3.40000    4.54     2.99   1.76539  0.8611
 3.45000    4.55     3.00   1.76707  0.8612
 3.50000    4.55     3.01   1.76780  0.8618
 3.55000    4.56     2.99   1.76829  0.8611
 3.60000    4.56     3.00   1.76661  0.8621
 3.65000    4.57     2.99   1.76831  0.8622
 3.70000    4.57     3.01   1.76766  0.8619
 3.75000    4.57     3.00   1.76584  0.8621
 3.80000    4.57     2.99   1.76644  0.8616
 3.85000    4.56     3.00   1.76727  0.8620
 3.90000    4.56     3.00   1.76661  0.8617
 3.95000    4.56     2.99   1.76724  0.8616
 4.00000    4.55     3.00   1.76520  0.8622
 4.00000    4.55     3.00   1.76464  0.8625
 3.95000    4.55     2.99   1.76690  0.8624
 3.90000    4.56     3.00   1.76820  0.8616
 3.85000    4.56     3.02   1.76920  0.8616
 3.80000    4.57     3.01   1.76813  0.8614
 3.75000    4.58     3.01   1.77065  0.8609
 3.70000    4.59     3.02   1.77048  0.8617
 3.65000    4.59     3.03   1.77217  0.8615
 3.60000    4.61     3.03   1.76938  0.8617
 3.55000    4.62     3.04   1.77029  0.8618
 3.50000    4.63     3.04   1.76813  0.8622
 3.45000    4.65     3.04   1.77161  0.8613
 3.40000    4.65     3.05   1.77021  0.8610
 3.35000    4.67     3.05   1.77076  0.8609
 3.30000    4.68     3.07   1.77019  0.8615
 3.25000    4.70     3.05   1.76968  0.8617
 3.20000    4.71     3.06   1.77300  0.8610
 3.15000    4.73     3.07   1.76971  0.8612
 3.10000    4.74     3.06   1.76832  0.8614
 3.05000    4.75     3.06   1.77078  0.8616
 3.00000    4.76     3.07   1.77049  0.8611
 2.95000    4.77     3.07   1.77172  0.8606
 2.90000    4.79     3.07   1.77184  0.8609
 2.85000    4.80     3.07   1.77113  0.8605
 2.80000    4.80     3.06   1.77169  0.8606
 2.75000    4.81     3.06   1.77173  0.8602
 2.70000    4.81     3.07   1.77191  0.8605
 2.65000    4.82     3.07   1.77070  0.8608
 2.60000    4.83     3.06   1.77114  0.8604
 2.55000    4.84     3.05   1.77142  0.8604
 2.50000    4.84     3.05   1.77304  0.8600
 2.45000    4.84     3.05   1.77084  0.8608
 2.40000    4.85     3.05   1.77264  0.8593
 2.35000    4.85     3.04   1.77256  0.8595
 2.30000    4.85     3.04   1.77232  0.8602
 2.25000    4.85     3.04   1.77281  0.8590
 2.20000    4.85     3.05   1.77214  0.8598
 2.15000    4.86     3.06   1.77455  0.8589
 2.10000    4.88     3.05   1.77283  0.8585
 2.05000    4.88     3.04   1.77174  0.8599
 2.00000    4.88     3.03   1.77124  0.8591
 1.95000    4.89     3.03   1.77039  0.8593
 1.90000    4.89     3.05   1.76984  0.8591
 1.85000    4.90     3.02   1.77108  0.8583
 1.80000    4.90     3.03   1.76965  0.8585
 1.75000    4.91     3.04   1.76581  0.8597
 1.70000    4.91     3.02   1.76803  0.8581
 1.65000    4.91     3.02   1.76828  0.8583
 1.60000    4.91     3.01   1.76629  0.8585
 1.55000    4.91     3.03   1.76558  0.8581
 1.50000    4.91     3.01   1.76564  0.8573
 1.45000    4.90     3.01   1.76478  0.8574
 1.40000    4.90     3.01   1.76479  0.8573
 1.35000    4.90     3.02   1.76313  0.8574
 1.30000    4.89     3.01   1.76216  0.8567
 1.25000    4.88     3.00   1.75998  0.8567
 1.20000    4.88     3.03   1.75546  0.8567
 1.15000    4.88     3.02   1.75454  0.8569
 1.10000    4.88     3.03   1.75371  0.8567
 1.05000    4.87     3.01   1.75154  0.8563
 1.00000    4.87     3.01   1.74852  0.8566
 0.95000    4.86     3.01   1.74524  0.8573
 0.90000    4.86     3.01   1.74144  0.8585
 0.85000    4.85     3.01   1.73894  0.8581
 0.80000    4.84     3.00   1.73510  0.8598
 0.75000    4.84     3.01   1.73390  0.8597
 0.70000    4.84     3.00   1.73314  0.8606
 0.65000    4.83     3.00   1.72973  0.8609
 0.60000    4.82     3.02   1.73288  0.8616
 0.55000    4.82     3.01   1.73050  0.8632
 0.50000    4.81     3.02   1.73173  0.8641
 0.45000    4.81     3.00   1.73464  0.8642
 0.40000    4.80     3.00   1.73595  0.8644
 0.35000    4.79     3.00   1.73822  0.8648
 0.30000    4.78     3.00   1.73775  0.8647
 0.25000    4.77     3.00   1.73946  0.8657
 0.20000    4.76     2.99   1.73925  0.8665
 0.15000    4.76     3.00   1.74149  0.8660
 0.10000    4.75     2.99   1.74137  0.8663
 0.05000    4.74     3.00   1.74192  0.8661
-0.00000    4.74     2.99   1.74280  0.8661
