 Field[T] Tsmpl[K] Tcntr[K] Signal Mirror[MM] RefSignal
 0.00000    4.61     2.91   1.46746  3.0938   2.83794
 0.06250    4.60     2.92   1.46653  3.0939   2.83512
 0.12500    4.58     2.92   1.46681  3.0940   2.83735
 0.18750    4.57     2.94   1.46610  3.0942   2.83692
 0.25000    4.57     2.92   1.46625  3.0942   2.83698
 0.31250    4.56     2.93   1.46541  3.0941   2.83651
 0.37500    4.55     2.93   1.46544  3.0943   2.83833
 0.43750    4.55     2.94   1.46456  3.0942   2.83488
 0.50000    4.55     2.95   1.46496  3.0942   2.83668
 0.56250    4.56     2.94   1.46445  3.0941   2.83645
 0.62500    4.55     2.94   1.46252  3.0941   2.83242
 0.68750    4.55     2.94   1.46156  3.0943   2.83289
 0.75000    4.55     2.95   1.46137  3.0945   2.83291
 0.81250    4.55     2.93   1.46161  3.0945   2.83517
 0.87500    4.55     2.94   1.46158  3.0946   2.83597
 0.93750    4.54     2.94   1.46007  3.0947   2.83599
 1.00000    4.54     2.95   1.45912  3.0946   2.83540
 1.06250    4.53     2.92   1.45828  3.0947   2.83642
 1.12500    4.52     2.92   1.45711  3.0945   2.83477
 1.18750    4.50     2.90   1.45538  3.0946   2.83433
 1.25000    4.48     2.92   1.45499  3.0946   2.83338
 1.31250    4.47     2.91   1.45251  3.0944   2.83273
 1.37500    4.45     2.91   1.45130  3.0944   2.83115
 1.43750    4.44     2.89   1.44938  3.0945   2.83181
 1.50000    4.42     2.89   1.44621  3.0949   2.83193
 1.56250    4.41     2.90   1.44350  3.0949   2.83189
 1.62500    4.40     2.92   1.44066  3.0948   2.83423
 1.68750    4.40     2.91   1.43516  3.0947   2.83137
 1.75000    4.39     2.93   1.42914  3.0947   2.82726
 1.81250    4.39     2.93   1.42339  3.0943   2.82830
 1.87500    4.39     2.93   1.41999  3.0939   2.82938
 1.93750    4.37     2.91   1.42014  3.0931   2.83173
 2.00000    4.36     2.93   1.42424  3.0924   2.83019
 2.06250    4.35     2.95   1.42809  3.0922   2.82887
 2.12500    4.35     2.94   1.43167  3.0920   2.82703
 2.18750    4.35     2.95   1.43580  3.0920   2.82579
 2.25000    4.36     2.96   1.43929  3.0918   2.82553
 2.31250    4.36     2.97   1.44269  3.0921   2.82811
 2.37500    4.37     2.97   1.44460  3.0921   2.82790
 2.43750    4.38     2.97   1.44489  3.0922   2.82726
 2.50000    4.38     2.98   1.44536  3.0922   2.82500
 2.56250    4.39     2.98   1.44663  3.0923   2.82583
 2.62500    4.41     3.00   1.44775  3.0926   2.82699
 2.68750    4.43     2.99   1.44872  3.0926   2.82373
 2.75000    4.45     3.00   1.44781  3.0928   2.82521
 2.81250    4.46     3.00   1.44820  3.0926   2.82561
 2.87500    4.49     3.00   1.44923  3.0928   2.82514
 2.93750    4.51     3.02   1.45044  3.0929   2.82736
 3.00000    4.52     3.00   1.45202  3.0927   2.82824
 3.06250    4.53     3.01   1.45028  3.0928   2.82606
 3.12500    4.54     3.01   1.44878  3.0929   2.82240
 3.18750    4.55     3.01   1.44855  3.0930   2.82046
 3.25000    4.57     3.02   1.44830  3.0932   2.82124
 3.31250    4.58     3.02   1.44916  3.0930   2.82133
 3.37500    4.59     3.02   1.45055  3.0930   2.82325
 3.43750    4.60     3.02   1.45003  3.0932   2.82251
 3.50000    4.61     3.03   1.45011  3.0933   2.82220
 3.56250    4.64     3.03   1.45016  3.0932   2.82265
 3.62500    4.66     3.04   1.45080  3.0935   2.82624
 3.68750    4.68     3.04   1.45188  3.0938   2.82736
 3.75000    4.70     3.04   1.45307  3.0936   2.83093
 3.81250    4.73     3.04   1.45085  3.0938   2.82514
 3.87500    4.75     3.04   1.44950  3.0937   2.82442
 3.93750    4.76     3.04   1.44823  3.0937   2.82148
 4.00000    4.77     3.04   1.44805  3.0938   2.82268
 4.06250    4.78     3.03   1.44809  3.0937   2.82348
 4.12500    4.79     3.05   1.44890  3.0937   2.82450
 4.18750    4.80     3.03   1.45029  3.0936   2.82597
 4.25000    4.80     3.03   1.44779  3.0930   2.82644
 4.31250    4.80     3.03   1.44653  3.0930   2.82477
 4.37500    4.81     3.02   1.44546  3.0932   2.82324
 4.43750    4.82     3.02   1.44535  3.0930   2.82374
 4.50000    4.82     3.01   1.44616  3.0933   2.82549
 4.56250    4.82     3.01   1.44736  3.0932   2.82617
 4.62500    4.82     3.01   1.44614  3.0930   2.82595
 4.68750    4.82     3.02   1.44479  3.0932   2.82555
 4.75000    4.83     3.02   1.44466  3.0933   2.82200
 4.81250    4.84     3.02   1.44488  3.0932   2.82421
 4.87500    4.84     3.03   1.44619  3.0932   2.82677
 4.93750    4.86     3.03   1.44493  3.0934   2.82510
 5.00000    4.86     3.02   1.44428  3.0934   2.82382
