 Field[T] Tsmpl[K] Tcntr[K] Signal Mirror[MM] RefSignal
 5.00000    5.10     3.02   2.49449  2.4912   2.93318
 4.95000    5.10     3.00   2.49440  2.4911   2.93234
 4.90000    5.10     3.00   2.49507  2.4910   2.93286
 4.85000    5.11     3.00   2.49558  2.4909   2.93216
 4.80000    5.11     3.01   2.49597  2.4910   2.93375
 4.75000    5.11     3.02   2.49734  2.4910   2.93355
 4.70000    5.13     3.00   2.49749  2.4909   2.93234
 4.65000    5.13     3.00   2.49825  2.4908   2.93142
 4.60000    5.13     3.00   2.49693  2.4908   2.93128
 4.55000    5.14     3.00   2.49778  2.4909   2.93081
 4.50000    5.15     3.01   2.49844  2.4907   2.93090
 4.45000    5.15     3.01   2.49975  2.4907   2.93084
 4.40000    5.16     3.01   2.50034  2.4907   2.93065
 4.35000    5.17     3.01   2.50052  2.4907   2.92847
 4.30000    5.17     3.01   2.50105  2.4907   2.93113
 4.25000    5.17     3.01   2.50181  2.4906   2.92979
 4.20000    5.18     3.02   2.50180  2.4908   2.93037
 4.15000    5.18     3.00   2.50222  2.4906   2.93120
 4.10000    5.18     3.01   2.50294  2.4906   2.92972
 4.05000    5.19     3.01   2.50350  2.4905   2.93113
 4.00000    5.20     3.00   2.50377  2.4905   2.93101
 3.95000    5.20     3.01   2.50407  2.4905   2.92838
 3.90000    5.20     3.01   2.50432  2.4906   2.93046
 3.85000    5.20     3.00   2.50501  2.4903   2.93046
 3.80000    5.21     3.01   2.50521  2.4904   2.93004
 3.75000    5.22     3.00   2.50613  2.4902   2.92990
 3.70000    5.22     2.99   2.50599  2.4902   2.92948
 3.65000    5.22     3.02   2.50649  2.4902   2.92900
 3.60000    5.23     3.00   2.50735  2.4900   2.92989
 3.55000    5.23     3.01   2.50642  2.4901   2.93040
 3.50000    5.24     3.01   2.50766  2.4898   2.92948
 3.45000    5.24     3.00   2.50834  2.4902   2.93095
 3.40000    5.24     3.01   2.50767  2.4902   2.92811
 3.35000    5.25     3.01   2.50933  2.4903   2.92991
 3.30000    5.25     3.00   2.50923  2.4901   2.93118
 3.25000    5.27     3.02   2.50952  2.4901   2.92959
 3.20000    5.27     3.00   2.50862  2.4901   2.92825
 3.15000    5.28     3.00   2.50975  2.4899   2.92795
 3.10000    5.28     3.00   2.50980  2.4901   2.92956
 3.05000    5.29     3.00   2.50984  2.4898   2.92922
 3.00000    5.29     3.02   2.51056  2.4898   2.93039
 2.95000    5.30     3.01   2.51005  2.4898   2.92949
 2.90000    5.30     3.00   2.51022  2.4898   2.93112
 2.85000    5.30     3.00   2.50999  2.4897   2.93094
 2.80000    5.30     3.00   2.50969  2.4897   2.92962
 2.75000    5.30     3.00   2.50999  2.4894   2.93126
 2.70000    5.30     3.00   2.50919  2.4892   2.93141
 2.65000    5.30     3.02   2.50993  2.4892   2.93407
 2.60000    5.30     3.01   2.50970  2.4892   2.93228
 2.55000    5.30     3.01   2.50898  2.4891   2.93316
 2.50000    5.29     3.01   2.50868  2.4891   2.93011
 2.45000    5.29     3.02   2.50756  2.4891   2.93268
 2.40000    5.29     3.00   2.50778  2.4891   2.93281
 2.35000    5.28     3.00   2.50692  2.4889   2.93281
 2.30000    5.27     3.01   2.50631  2.4886   2.93306
 2.25000    5.27     3.00   2.50442  2.4888   2.93285
 2.20000    5.26     3.01   2.50362  2.4887   2.93111
 2.15000    5.26     3.01   2.50219  2.4884   2.93224
 2.10000    5.26     3.00   2.49940  2.4882   2.93416
 2.05000    5.25     3.00   2.49825  2.4882   2.93534
 2.00000    5.24     3.00   2.49657  2.4881   2.93548
 1.95000    5.23     3.00   2.49288  2.4880   2.93370
 1.90000    5.22     3.00   2.48903  2.4878   2.93388
 1.85000    5.22     3.01   2.48317  2.4874   2.93527
 1.80000    5.21     2.99   2.47576  2.4874   2.93459
 1.75000    5.20     2.99   2.46664  2.4872   2.93446
 1.70000    5.19     3.00   2.45538  2.4874   2.93520
 1.65000    5.18     3.00   2.44225  2.4875   2.93501
 1.60000    5.18     3.02   2.42980  2.4881   2.93726
 1.55000    5.17     3.00   2.42323  2.4892   2.93548
 1.50000    5.15     3.00   2.42372  2.4900   2.93358
 1.45000    5.13     3.00   2.42831  2.4909   2.93567
 1.40000    5.11     3.00   2.43549  2.4915   2.93430
 1.35000    5.10     3.01   2.44280  2.4918   2.93549
 1.30000    5.08     2.99   2.44926  2.4920   2.93456
 1.25000    5.06     3.01   2.45576  2.4923   2.93562
 1.20000    5.05     2.99   2.46125  2.4925   2.93611
 1.15000    5.03     3.00   2.46605  2.4926   2.93787
 1.10000    5.02     3.01   2.47072  2.4926   2.94073
 1.05000    5.01     3.00   2.47325  2.4924   2.93652
 1.00000    5.00     2.99   2.47707  2.4924   2.93810
 0.95000    4.99     2.99   2.48029  2.4926   2.93638
 0.90000    4.97     2.99   2.48265  2.4923   2.93586
 0.85000    4.95     3.01   2.48463  2.4926   2.93812
 0.80000    4.94     2.99   2.48602  2.4925   2.93841
 0.75000    4.92     3.00   2.48886  2.4926   2.93984
 0.70000    4.91     3.00   2.49212  2.4926   2.94025
 0.65000    4.90     2.99   2.49330  2.4927   2.93983
 0.60000    4.89     3.00   2.49382  2.4924   2.93703
 0.55000    4.88     2.99   2.49562  2.4922   2.93806
 0.50000    4.86     2.99   2.49733  2.4923   2.94048
 0.45000    4.85     3.01   2.49765  2.4924   2.93934
 0.40000    4.85     3.00   2.49835  2.4924   2.93942
 0.35000    4.84     2.99   2.49772  2.4924   2.93874
 0.30000    4.83     2.99   2.50017  2.4924   2.93936
 0.25000    4.82     2.99   2.50133  2.4923   2.93848
 0.20000    4.81     2.99   2.50282  2.4923   2.94098
 0.15000    4.81     3.00   2.50336  2.4923   2.94002
 0.10000    4.80     2.99   2.50441  2.4920   2.94111
 0.05000    4.78     2.99   2.50442  2.4921   2.94021
-0.00000    4.77     2.99   2.50536  2.4924   2.94161
