 Field[T] Tsmpl[K] Tcntr[K] Signal Mirror[MM] RefSignal
 0.00000    4.18     2.95   1.85628  2.4947   0.92539
 0.05000    4.18     2.94   1.85560  2.4950   0.92420
 0.10000    4.17     2.95   1.85546  2.4948   0.92591
 0.15000    4.17     2.96   1.85402  2.4950   0.92560
 0.20000    4.17     2.95   1.85343  2.4949   0.92624
 0.25000    4.17     2.96   1.85275  2.4946   0.92469
 0.30000    4.17     2.96   1.85254  2.4944   0.92475
 0.35000    4.17     2.96   1.85126  2.4945   0.92547
 0.40000    4.17     2.99   1.84952  2.4946   0.92383
 0.45000    4.17     2.97   1.84836  2.4946   0.92551
 0.50000    4.17     2.97   1.84661  2.4945   0.92537
 0.55000    4.17     2.97   1.84546  2.4946   0.92401
 0.60000    4.17     2.96   1.84348  2.4945   0.92395
 0.65000    4.17     2.96   1.84152  2.4943   0.92381
 0.70000    4.17     2.96   1.83904  2.4940   0.92503
 0.75000    4.17     2.97   1.83703  2.4938   0.92429
 0.80000    4.17     2.95   1.83443  2.4936   0.92400
 0.85000    4.16     2.94   1.83105  2.4931   0.92416
 0.90000    4.15     2.94   1.82803  2.4926   0.92452
 0.95000    4.14     2.94   1.82523  2.4918   0.92375
 1.00000    4.13     2.94   1.82404  2.4910   0.92490
 1.05000    4.13     2.93   1.82540  2.4899   0.92362
 1.10000    4.12     2.92   1.83185  2.4888   0.92329
 1.15000    4.11     2.92   1.84212  2.4877   0.92411
 1.20000    4.10     2.92   1.85293  2.4876   0.92231
 1.25000    4.10     2.92   1.86224  2.4876   0.92361
 1.30000    4.09     2.92   1.86909  2.4883   0.92322
 1.35000    4.08     2.92   1.87405  2.4885   0.92372
 1.40000    4.08     2.93   1.87721  2.4889   0.92390
 1.45000    4.08     2.94   1.87947  2.4891   0.92234
 1.50000    4.08     2.91   1.88205  2.4894   0.92244
 1.55000    4.07     2.93   1.88336  2.4895   0.92343
 1.60000    4.08     2.94   1.88435  2.4898   0.92238
 1.65000    4.09     2.94   1.88528  2.4901   0.92366
 1.70000    4.09     2.96   1.88670  2.4902   0.92351
 1.75000    4.10     2.95   1.88741  2.4904   0.92366
 1.80000    4.10     2.96   1.88689  2.4907   0.92232
 1.85000    4.11     2.98   1.88843  2.4907   0.92362
 1.90000    4.12     2.97   1.88909  2.4909   0.92268
 1.95000    4.12     2.97   1.88834  2.4914   0.92251
 2.00000    4.12     2.97   1.88921  2.4914   0.92150
 2.05000    4.13     2.97   1.88945  2.4914   0.92074
 2.10000    4.13     2.98   1.88965  2.4917   0.92274
 2.15000    4.13     2.98   1.88962  2.4916   0.92164
 2.20000    4.13     2.98   1.88979  2.4916   0.92129
 2.25000    4.13     2.99   1.88952  2.4917   0.92216
 2.30000    4.13     3.00   1.88893  2.4919   0.92140
 2.35000    4.13     2.99   1.88921  2.4921   0.92134
 2.40000    4.13     2.99   1.88816  2.4924   0.92194
 2.45000    4.13     3.00   1.88879  2.4924   0.92061
 2.50000    4.13     2.99   1.88854  2.4925   0.92174
 2.55000    4.14     3.00   1.88815  2.4925   0.92137
 2.60000    4.14     3.00   1.88802  2.4926   0.92232
 2.65000    4.15     3.01   1.88805  2.4925   0.92147
 2.70000    4.16     3.00   1.88770  2.4927   0.92134
 2.75000    4.17     3.01   1.88756  2.4927   0.92164
 2.80000    4.18     3.00   1.88751  2.4929   0.92140
 2.85000    4.19     3.00   1.88705  2.4929   0.92225
 2.90000    4.20     3.03   1.88692  2.4929   0.92212
 2.95000    4.22     3.01   1.88670  2.4930   0.91985
 3.00000    4.23     3.01   1.88642  2.4932   0.92074
 3.05000    4.25     3.02   1.88572  2.4931   0.92066
 3.10000    4.26     3.01   1.88553  2.4930   0.91958
 3.15000    4.28     3.02   1.88553  2.4933   0.92081
 3.20000    4.28     3.02   1.88482  2.4934   0.92056
 3.25000    4.30     3.03   1.88395  2.4934   0.91956
 3.30000    4.31     3.04   1.88392  2.4936   0.91928
 3.35000    4.33     3.03   1.88406  2.4936   0.91967
 3.40000    4.34     3.04   1.88373  2.4936   0.92039
 3.45000    4.35     3.04   1.88352  2.4937   0.91935
 3.50000    4.36     3.05   1.88329  2.4938   0.92019
 3.55000    4.38     3.04   1.88276  2.4940   0.92008
 3.60000    4.38     3.05   1.88288  2.4939   0.91924
 3.65000    4.39     3.05   1.88215  2.4939   0.91936
 3.70000    4.41     3.06   1.88213  2.4939   0.91989
 3.75000    4.42     3.05   1.88147  2.4939   0.92084
 3.80000    4.43     3.05   1.88045  2.4941   0.91908
 3.85000    4.44     3.05   1.88081  2.4942   0.91922
 3.90000    4.45     3.05   1.88051  2.4942   0.91884
 3.95000    4.46     3.04   1.88054  2.4940   0.91874
 4.00000    4.47     3.05   1.87970  2.4941   0.91983
