 Field[T] Tsmpl[K] Tcntr[K] Signal RefSignal
 0.00000    5.19     2.86   2.70780   2.78262
 0.05000    5.13     2.84   2.70910   2.78449
 0.10000    0.00     2.85   2.70850   2.78294
 0.15000    5.01     2.84   2.70830   2.78467
 0.20000    4.95     2.84   2.71020   2.78604
 0.25000    0.00     0.00   2.70870   2.78331
 0.30000    4.83     2.83   2.70960   2.78444
 0.35000    4.80     2.83   2.71110   2.78465
 0.40000    4.78     2.83   2.70960   2.78342
 0.45000    4.74     2.83   2.71260   2.78225
 0.50000    4.73     2.85   2.71370   2.78371
 0.55000    4.70     2.84   2.71280   2.78330
 0.60000    4.68     2.84   2.71500   2.78387
 0.65000    4.66     2.84   2.71130   2.78076
 0.70000    4.63     2.86   2.71260   2.78240
 0.75000    4.61     2.85   2.71410   2.78300
 0.80000    4.59     2.82   2.71370   2.78188
 0.85000    4.57     2.85   2.71200   2.78097
 0.90000    4.55     2.85   2.71000   2.78185
 0.95000    4.53     2.84   2.71020   2.78147
 1.00000    4.51     2.87   2.70980   2.78075
 1.05000    4.49     2.84   2.70910   2.78188
 1.10000    4.48     2.85   2.70950   2.78118
 1.15000    4.46     2.85   2.70820   2.78136
 1.20000    4.45     2.83   2.70630   2.77973
 1.25000    4.43     2.86   2.70550   2.78080
 1.30000    4.42     2.87   2.70260   2.77998
 1.35000    4.41     2.88   2.70010   2.78245
 1.40000    4.40     2.84   2.69330   2.78147
 1.45000    4.39     2.87   2.68420   2.77956
 1.50000    4.38     2.87   2.67700   2.78125
 1.55000    4.37     2.89   2.67230   2.78151
 1.60000    4.36     2.84   2.66750   2.78027
 1.65000    4.36     2.92   2.66580   2.78067
 1.70000    4.36     2.90   2.66230   2.77928
 1.75000    4.36     2.88   2.66230   2.77773
 1.80000    4.34     2.88   2.66120   2.77856
 1.85000    4.32     2.86   2.65720   2.77943
 1.90000    4.29     2.85   2.65380   2.77903
 1.95000    4.26     2.83   2.65210   2.77801
 2.00000    4.22     2.82   2.64720   2.77832
 2.05000    4.18     2.81   2.64400   2.77887
 2.10000    4.15     2.81   2.63810   2.77696
 2.15000    4.13     2.81   2.63570   2.77750
 2.20000    4.12     2.81   2.63040   2.78017
 2.25000    4.10     2.81   2.62830   2.77787
 2.30000    4.09     2.82   2.62460   2.78038
 2.35000    4.09     2.82   2.62390   2.77836
 2.40000    4.08     2.84   2.62400   2.77970
 2.45000    4.08     2.84   2.61950   2.77793
 2.50000    4.09     2.87   2.61990   2.77667
 2.55000    4.09     2.88   2.61990   2.77870
 2.60000    4.10     2.88   2.61720   2.77779
 2.65000    4.11     2.90   2.61540   2.77840
 2.70000    4.12     2.91   2.61790   2.78000
 2.75000    4.14     2.91   2.61800   2.77876
 2.80000    4.16     2.92   2.61990   2.77787
 2.85000    4.18     2.94   2.61760   2.77796
 2.90000    4.20     2.93   2.61810   2.77805
 2.95000    4.22     2.95   2.61950   2.77686
 3.00000    4.24     2.95   2.62020   2.77580
 3.05000    4.26     2.95   2.61980   2.77587
 3.10000    4.27     2.96   2.61930   2.77594
 3.15000    4.29     2.97   2.62170   2.77697
 3.20000    4.30     2.98   2.62110   2.77703
 3.25000    4.31     2.98   2.62280   2.77597
 3.30000    4.32     2.99   2.62600   2.77817
 3.35000    4.34     2.99   2.62440   2.77676
 3.40000    4.35     2.99   2.62500   2.77690
 3.45000    4.36     3.00   2.62350   2.77560
 3.50000    4.37     3.01   2.62340   2.77504
 3.55000    4.39     3.01   2.62740   2.77502
 3.60000    4.41     3.02   2.62920   2.77400
 3.65000    4.42     3.03   2.62820   2.77551
 3.70000    4.44     3.04   2.63230   2.77737
 3.75000    4.47     3.04   2.62900   2.77513
 3.80000    4.48     3.04   2.63400   2.77682
 3.85000    4.51     3.05   2.63370   2.77582
 3.90000    4.53     3.06   2.63380   2.77640
 3.95000    4.55     3.07   2.63690   2.77750
 4.00000    4.57     3.07   2.63650   2.77658
 4.05000    4.59     3.08   2.63850   2.77792
 4.10000    4.61     3.09   2.63870   2.77668
 4.15000    4.63     3.08   2.64050   2.77822
 4.20000    4.65     3.09   2.64160   2.77765
 4.25000    4.67     3.09   2.63870   2.77524
 4.30000    4.68     3.09   2.64310   2.77767
 4.35000    4.69     3.09   2.64480   2.77784
 4.40000    4.72     3.09   2.64360   2.77783
 4.45000    4.73     3.08   2.64740   2.77687
 4.50000    4.73     3.08   2.64700   2.77547
 4.55000    4.74     3.09   2.64670   2.77581
 4.60000    4.75     3.07   2.65020   2.77724
 4.65000    4.76     3.07   2.65120   2.77512
 4.70000    4.76     3.07   2.65150   2.77556
 4.75000    4.77     3.06   2.65150   2.77412
 4.80000    4.77     3.06   2.65430   2.77679
 4.85000    4.78     3.06   2.65270   2.77596
 4.90000    4.78     3.04   2.65390   2.77600
 4.95000    4.79     3.05   2.65590   2.77572
 5.00000    4.80     3.04   2.65500   2.77587
