 Field[T] Tsmpl[K] Tcntr[K] Signal   Mirror[MM]
 0.00000    1.80     1.80   0.51460  -12.2399
 0.05000    1.80     1.80   0.51446  -12.2398
 0.10000    1.80     1.80   0.51426  -12.2398
 0.15000    1.80     1.80   0.51394  -12.2397
 0.20000    1.80     1.80   0.51380  -12.2396
 0.25000    1.80     1.80   0.51361  -12.2394
 0.30000    1.80     1.80   0.51352  -12.2398
 0.35000    1.80     1.80   0.51315  -12.2398
 0.40000    1.80     1.80   0.51266  -12.2400
 0.45000    1.80     1.80   0.51241  -12.2398
 0.50000    1.80     1.80   0.51211  -12.2396
 0.55000    1.80     1.80   0.51160  -12.2398
 0.60000    1.80     1.80   0.51120  -12.2395
 0.65000    1.80     1.80   0.51063  -12.2396
 0.70000    1.80     1.80   0.51054  -12.2391
 0.75000    1.80     1.80   0.51008  -12.2385
 0.80000    1.80     1.80   0.50938  -12.2383
 0.85000    1.80     1.80   0.50836  -12.2376
 0.90000    1.80     1.80   0.50578  -12.2370
 0.95000    1.80     1.80   0.50112  -12.2364
 1.00000    1.80     1.80   0.49776  -12.2372
 1.05000    1.80     1.80   0.49540  -12.2378
 1.10000    1.80     1.80   0.49360  -12.2386
 1.15000    1.80     1.80   0.49270  -12.2395
 1.20000    1.80     1.80   0.49174  -12.2403
 1.25000    1.80     1.80   0.49150  -12.2411
 1.30000    1.80     1.80   0.49145  -12.2418
 1.35000    1.80     1.80   0.49230  -12.2425
 1.40000    1.80     1.80   0.49279  -12.2430
 1.45000    1.80     1.80   0.49333  -12.2435
 1.50000    1.80     1.80   0.49325  -12.2437
 1.55000    1.80     1.80   0.49341  -12.2438
 1.60000    1.80     1.80   0.49360  -12.2436
 1.65000    1.80     1.80   0.49356  -12.2439
 1.70000    1.80     1.80   0.49332  -12.2440
 1.75000    1.80     1.80   0.49273  -12.2443
 1.80000    1.80     1.80   0.49277  -12.2444
 1.85000    1.80     1.80   0.49247  -12.2446
 1.90000    1.80     1.80   0.49194  -12.2452
 1.95000    1.80     1.80   0.49185  -12.2452
 2.00000    1.80     1.80   0.49213  -12.2453
 2.05000    1.80     1.80   0.49176  -12.2456
 2.10000    1.80     1.80   0.49180  -12.2461
 2.15000    1.80     1.80   0.49168  -12.2459
 2.20000    1.80     1.80   0.49195  -12.2463
 2.25000    1.80     1.80   0.49149  -12.2464
 2.30000    1.80     1.80   0.49160  -12.2470
 2.35000    1.80     1.80   0.49171  -12.2469
 2.40000    1.80     1.80   0.49211  -12.2471
 2.45000    1.80     1.80   0.49198  -12.2473
 2.50000    1.80     1.80   0.49198  -12.2474
 2.55000    1.80     1.80   0.49252  -12.2477
 2.60000    1.80     1.80   0.49253  -12.2479
 2.65000    1.80     1.80   0.49249  -12.2480
 2.70000    1.80     1.80   0.49254  -12.2481
 2.75000    1.80     1.80   0.49268  -12.2485
 2.80000    1.80     1.80   0.49278  -12.2485
 2.85000    1.80     1.80   0.49302  -12.2487
 2.90000    1.80     1.80   0.49338  -12.2486
 2.95000    1.80     1.80   0.49314  -12.2486
 3.00000    1.80     1.80   0.49311  -12.2492
 3.05000    1.80     1.80   0.49287  -12.2492
 3.10000    1.80     1.80   0.49318  -12.2494
 3.15000    1.80     1.80   0.49309  -12.2493
 3.20000    1.80     1.80   0.49325  -12.2493
 3.25000    1.80     1.80   0.49329  -12.2493
 3.30000    1.80     1.80   0.49358  -12.2497
 3.35000    1.80     1.80   0.49330  -12.2498
 3.40000    1.80     1.80   0.49338  -12.2502
 3.45000    1.80     1.80   0.49365  -12.2503
 3.50000    1.80     1.80   0.49394  -12.2503
 3.55000    1.80     1.80   0.49363  -12.2502
 3.60000    1.80     1.80   0.49330  -12.2507
 3.65000    1.80     1.80   0.49345  -12.2508
 3.70000    1.80     1.80   0.49328  -12.2508
 3.75000    1.80     1.80   0.49346  -12.2508
 3.80000    1.80     1.80   0.49359  -12.2507
 3.85000    1.80     1.80   0.49355  -12.2511
 3.90000    1.80     1.80   0.49358  -12.2512
 3.95000    1.80     1.80   0.49325  -12.2510
 4.00000    1.80     1.80   0.49318  -12.2513
 4.05000    1.80     1.80   0.49342  -12.2511
 4.10000    1.80     1.80   0.49337  -12.2512
 4.15000    1.80     1.80   0.49334  -12.2515
 4.20000    1.80     1.80   0.49355  -12.2518
 4.25000    1.80     1.80   0.49369  -12.2518
 4.30000    1.80     1.80   0.49339  -12.2517
 4.35000    1.80     1.80   0.49325  -12.2518
 4.40000    1.80     1.80   0.49344  -12.2519
 4.45000    1.80     1.80   0.49355  -12.2521
 4.50000    1.80     1.80   0.49342  -12.2526
 4.55000    1.80     1.80   0.49319  -12.2526
 4.60000    1.80     1.80   0.49329  -12.2527
 4.65000    1.80     1.80   0.49313  -12.2526
 4.70000    1.80     1.80   0.49314  -12.2526
 4.75000    1.80     1.80   0.49345  -12.2528
 4.80000    1.80     1.80   0.49346  -12.2530
 4.85000    1.80     1.80   0.49342  -12.2534
 4.90000    1.80     1.80   0.49338  -12.2533
 4.95000    1.80     1.80   0.49342  -12.2531
 5.00000    1.80     1.80   0.49357  -12.2533
 5.00000    1.80     1.80   0.49366  -12.2535
 4.95000    1.80     1.80   0.49341  -12.2535
 4.90000    1.80     1.80   0.49379  -12.2537
 4.85000    1.80     1.80   0.49390  -12.2539
 4.80000    1.80     1.80   0.49375  -12.2538
 4.75000    1.80     1.80   0.49372  -12.2541
 4.70000    1.80     1.80   0.49370  -12.2538
 4.65000    1.80     1.80   0.49347  -12.2543
 4.60000    1.80     1.80   0.49331  -12.2547
 4.55000    1.80     1.80   0.49343  -12.2546
 4.50000    1.80     1.80   0.49349  -12.2543
 4.45000    1.80     1.80   0.49324  -12.2546
 4.40000    1.80     1.80   0.49302  -12.2544
 4.35000    1.80     1.80   0.49316  -12.2543
 4.30000    1.80     1.80   0.49315  -12.2543
 4.25000    1.80     1.80   0.49352  -12.2547
 4.20000    1.80     1.80   0.49340  -12.2546
 4.15000    1.80     1.80   0.49348  -12.2546
 4.10000    1.80     1.80   0.49327  -12.2547
 4.05000    1.80     1.80   0.49321  -12.2549
 4.00000    1.80     1.80   0.49286  -12.2547
 3.95000    1.80     1.80   0.49293  -12.2548
 3.90000    1.80     1.80   0.49271  -12.2549
 3.85000    1.80     1.80   0.49265  -12.2550
 3.80000    1.80     1.80   0.49258  -12.2549
 3.75000    1.80     1.80   0.49251  -12.2554
 3.70000    1.80     1.80   0.49259  -12.2553
 3.65000    1.80     1.80   0.49239  -12.2553
 3.60000    1.80     1.80   0.49261  -12.2554
 3.55000    1.80     1.80   0.49221  -12.2554
 3.50000    1.80     1.80   0.49200  -12.2553
 3.45000    1.80     1.80   0.49196  -12.2552
 3.40000    1.80     1.80   0.49230  -12.2552
 3.35000    1.80     1.80   0.49189  -12.2552
 3.30000    1.80     1.80   0.49180  -12.2554
 3.25000    1.80     1.80   0.49169  -12.2555
 3.20000    1.80     1.80   0.49114  -12.2557
 3.15000    1.80     1.80   0.49128  -12.2557
 3.10000    1.80     1.80   0.49104  -12.2553
 3.05000    1.80     1.80   0.49089  -12.2556
 3.00000    1.80     1.80   0.49055  -12.2558
 2.95000    1.80     1.80   0.49060  -12.2560
 2.90000    1.80     1.80   0.49008  -12.2557
 2.85000    1.80     1.80   0.49003  -12.2559
 2.80000    1.80     1.80   0.48977  -12.2558
 2.75000    1.80     1.80   0.48943  -12.2557
 2.70000    1.80     1.80   0.48896  -12.2556
 2.65000    1.80     1.80   0.48925  -12.2558
 2.60000    1.80     1.80   0.48878  -12.2557
 2.55000    1.80     1.80   0.48841  -12.2555
 2.50000    1.80     1.80   0.48799  -12.2555
 2.45000    1.80     1.80   0.48777  -12.2554
 2.40000    1.80     1.80   0.48731  -12.2554
 2.35000    1.80     1.80   0.48755  -12.2553
 2.30000    1.80     1.80   0.48743  -12.2550
 2.25000    1.80     1.80   0.48671  -12.2548
 2.20000    1.80     1.80   0.48658  -12.2544
 2.15000    1.80     1.80   0.48633  -12.2545
 2.10000    1.80     1.80   0.48676  -12.2542
 2.05000    1.80     1.80   0.48657  -12.2544
 2.00000    1.80     1.80   0.48631  -12.2538
 1.95000    1.80     1.80   0.48623  -12.2537
 1.90000    1.80     1.80   0.48648  -12.2538
 1.85000    1.80     1.80   0.48632  -12.2534
 1.80000    1.80     1.80   0.48662  -12.2533
 1.75000    1.80     1.80   0.48680  -12.2529
 1.70000    1.80     1.80   0.48704  -12.2529
 1.65000    1.80     1.80   0.48683  -12.2528
 1.60000    1.80     1.80   0.48657  -12.2525
 1.55000    1.80     1.80   0.48678  -12.2526
 1.50000    1.80     1.80   0.48625  -12.2523
 1.45000    1.80     1.80   0.48597  -12.2521
 1.40000    1.80     1.80   0.48514  -12.2520
 1.35000    1.80     1.80   0.48418  -12.2517
 1.30000    1.80     1.80   0.48316  -12.2508
 1.25000    1.80     1.80   0.48317  -12.2502
 1.20000    1.80     1.80   0.48344  -12.2493
 1.15000    1.80     1.80   0.48385  -12.2485
 1.10000    1.80     1.80   0.48431  -12.2476
 1.05000    1.80     1.80   0.48559  -12.2470
 1.00000    1.80     1.80   0.48749  -12.2459
 0.95000    1.80     1.80   0.49013  -12.2450
 0.90000    1.80     1.80   0.49474  -12.2450
 0.85000    1.80     1.80   0.49728  -12.2460
 0.80000    1.80     1.80   0.49841  -12.2466
 0.75000    1.80     1.80   0.49863  -12.2474
 0.70000    1.80     1.80   0.49815  -12.2473
 0.65000    1.80     1.80   0.49837  -12.2474
 0.60000    1.80     1.80   0.49844  -12.2476
 0.55000    1.80     1.80   0.49819  -12.2472
 0.50000    1.80     1.80   0.49831  -12.2477
 0.45000    1.80     1.80   0.49823  -12.2476
 0.40000    1.80     1.80   0.49821  -12.2477
 0.35000    1.80     1.80   0.49815  -12.2475
 0.30000    1.80     1.80   0.49783  -12.2476
 0.25000    1.80     1.80   0.49810  -12.2474
 0.20000    1.80     1.80   0.49822  -12.2469
 0.15000    1.80     1.80   0.49822  -12.2472
 0.10000    1.80     1.80   0.49800  -12.2474
 0.05000    1.80     1.80   0.49785  -12.2470
 -0.00000    1.80     1.80   0.49750  -12.2472
