 Field[T] Tsmpl[K] Tcntr[K] Signal
 7.00000    1.87     1.90   6.93930
 6.95000    1.87     1.90   6.94700
 6.90000    1.87     1.90   6.95530
 6.85000    1.87     1.90   6.96790
 6.80000    1.87     1.90   6.97240
 6.75000    1.87     1.90   6.98730
 6.70000    1.87     1.90   6.99400
 6.65000    1.87     1.90   6.99820
 6.60000    1.87     1.90   6.99700
 6.55000    1.87     1.90   7.00300
 6.50000    1.87     1.90   7.00290
 6.45000    1.87     1.90   7.00730
 6.40000    1.87     1.90   7.01620
 6.35000    1.87     1.90   7.01210
 6.30000    1.87     1.89   7.00560
 6.25000    1.87     1.89   7.00620
 6.20000    1.87     1.89   7.00410
 6.15000    1.87     1.89   7.00570
 6.10000    1.87     1.89   7.00570
 6.05000    1.87     1.89   7.00930
 6.00000    1.87     1.89   7.00730
 5.95000    1.87     1.89   7.01150
 5.90000    1.87     1.89   7.01130
 5.85000    1.87     1.89   7.01350
 5.80000    1.87     1.89   7.01920
 5.75000    1.87     1.89   7.02180
 5.70000    1.87     1.89   7.01690
 5.65000    1.87     1.89   7.01830
 5.60000    1.87     1.89   7.02480
 5.55000    1.87     1.89   7.02570
 5.50000    1.87     1.89   7.02580
 5.45000    1.87     1.89   7.02670
 5.40000    1.87     1.89   7.02800
 5.35000    1.87     1.89   7.03440
 5.30000    1.87     1.89   7.03780
 5.25000    1.87     1.89   7.03460
 5.20000    1.87     1.89   7.03340
 5.15000    1.87     1.89   7.03180
 5.10000    1.87     1.89   7.03200
 5.05000    1.87     1.89   7.04090
 5.00000    1.87     1.89   7.03990
 4.95000    1.87     1.88   7.03930
 4.90000    1.87     1.88   7.04050
 4.85000    1.87     1.88   7.04240
 4.80000    1.87     1.88   7.04450
 4.75000    1.87     1.88   7.04440
 4.70000    1.87     1.88   7.04000
 4.65000    1.87     1.88   7.04090
 4.60000    1.87     1.88   7.03980
 4.55000    1.87     1.88   7.03650
 4.50000    1.86     1.88   7.03870
 4.45000    1.86     1.88   7.03970
 4.40000    1.86     1.88   7.03860
 4.35000    1.86     1.88   7.03680
 4.30000    1.86     1.88   7.03550
 4.25000    1.86     1.88   7.03760
 4.20000    1.86     1.88   7.04070
 4.15000    1.86     1.88   7.04850
 4.10000    1.86     1.88   7.05060
 4.05000    1.86     1.88   7.05100
 4.00000    1.86     1.88   7.05560
 3.95000    1.86     1.88   7.05910
 3.90000    1.86     1.88   7.06540
 3.85000    1.86     1.88   7.06870
 3.80000    1.86     1.88   7.07550
 3.75000    1.86     1.88   7.08130
 3.70000    1.86     1.88   7.09030
 3.65000    1.86     1.88   7.10140
 3.60000    1.86     1.87   7.10170
 3.55000    1.86     1.87   7.10880
 3.50000    1.86     1.87   7.10870
 3.45000    1.86     1.87   7.10850
 3.40000    1.86     1.87   7.10430
 3.35000    1.86     1.87   7.10360
 3.30000    1.86     1.87   7.10300
 3.25000    1.86     1.87   7.09570
 3.20000    1.86     1.87   7.09040
 3.15000    1.85     1.87   7.09130
 3.10000    1.85     1.87   7.07740
 3.05000    1.85     1.87   7.06130
 3.00000    1.85     1.87   7.05500
 2.95000    1.85     1.87   7.06680
 2.90000    1.85     1.87   7.06840
 2.85000    1.85     1.87   7.07310
 2.80000    1.85     1.87   7.08300
 2.75000    1.85     1.87   7.07830
 2.70000    1.85     1.87   7.07890
 2.65000    1.85     1.86   7.07320
 2.60000    1.85     1.86   7.06370
 2.55000    1.85     1.86   7.05950
 2.50000    1.85     1.86   7.06380
 2.45000    1.85     1.86   7.06280
 2.40000    1.85     1.86   7.06350
 2.35000    1.85     1.86   7.06260
 2.30000    1.85     1.86   7.05710
 2.25000    1.85     1.86   7.05270
 2.20000    1.85     1.86   7.04500
 2.15000    1.84     1.86   7.04410
 2.10000    1.84     1.86   7.05040
 2.05000    1.84     1.86   7.05950
 2.00000    1.84     1.86   7.06060
 1.95000    1.84     1.86   7.05900
 1.90000    1.84     1.86   7.05680
 1.85000    1.84     1.86   7.05250
 1.80000    1.84     1.86   7.05480
 1.75000    1.84     1.86   7.05140
 1.70000    1.84     1.86   7.04990
 1.65000    1.84     1.86   7.03750
 1.60000    1.84     1.86   7.04070
 1.55000    1.84     1.85   7.03260
 1.50000    1.84     1.85   7.03610
 1.45000    1.83     1.85   7.04010
 1.40000    1.83     1.85   7.03500
 1.35000    1.83     1.85   7.03170
 1.30000    1.83     1.85   7.02740
 1.25000    1.83     1.85   7.03690
 1.20000    1.83     1.85   7.03810
 1.15000    1.83     1.85   7.02820
 1.10000    1.83     1.85   7.02070
 1.05000    1.83     1.85   7.01500
 1.00000    1.83     1.85   7.01390
 0.95000    1.83     1.85   7.01800
 0.90000    1.83     1.85   7.02140
 0.85000    1.83     1.85   7.02270
 0.80000    1.83     1.85   7.02240
 0.75000    1.83     1.85   7.03140
 0.70000    1.82     1.85   7.03900
 0.65000    1.82     1.85   7.04350
 0.60000    1.82     1.85   7.05330
 0.55000    1.82     1.85   7.05940
 0.50000    1.82     1.85   7.06420
 0.45000    1.82     1.85   7.05790
 0.40000    1.82     1.85   7.05600
 0.35000    1.82     1.85   7.06140
 0.30000    1.82     1.85   7.06660
 0.25000    1.82     1.85   7.06950
 0.20000    1.82     1.84   7.07470
 0.15000    1.82     1.84   7.07840
 0.10000    1.82     1.84   7.07410
 0.05000    1.82     1.84   7.07420
-0.00000    1.82     1.84   7.08020
