 Field[T] Tsmpl[K] Tcntr[K] Signal
 7.00000    1.89     1.92   7.62090
 6.95000    1.89     1.92   7.63520
 6.90000    1.89     1.92   7.64090
 6.85000    1.89     1.92   7.65390
 6.80000    1.89     1.92   7.66570
 6.75000    1.89     1.92   7.67810
 6.70000    1.89     1.92   7.69330
 6.65000    1.89     1.92   7.70880
 6.60000    1.89     1.92   7.71300
 6.55000    1.89     1.92   7.72160
 6.50000    1.89     1.92   7.72960
 6.45000    1.89     1.92   7.73080
 6.40000    1.89     1.92   7.73630
 6.35000    1.89     1.92   7.74300
 6.30000    1.89     1.92   7.75100
 6.25000    1.89     1.92   7.75320
 6.20000    1.89     1.92   7.76240
 6.15000    1.89     1.91   7.76810
 6.10000    1.89     1.91   7.77730
 6.05000    1.89     1.91   7.78320
 6.00000    1.89     1.91   7.79000
 5.95000    1.89     1.91   7.79300
 5.90000    1.89     1.91   7.79580
 5.85000    1.89     1.91   7.80290
 5.80000    1.89     1.91   7.80450
 5.75000    1.89     1.91   7.81140
 5.70000    1.89     1.91   7.81530
 5.65000    1.89     1.91   7.82580
 5.60000    1.89     1.91   7.83180
 5.55000    1.89     1.91   7.83000
 5.50000    1.89     1.91   7.83720
 5.45000    1.89     1.91   7.84290
 5.40000    1.89     1.91   7.84380
 5.35000    1.89     1.91   7.84490
 5.30000    1.89     1.91   7.84450
 5.25000    1.88     1.91   7.84690
 5.20000    1.88     1.91   7.85050
 5.15000    1.88     1.91   7.85690
 5.10000    1.88     1.91   7.86060
 5.05000    1.88     1.91   7.86100
 5.00000    1.88     1.91   7.86360
 4.95000    1.88     1.91   7.87200
 4.90000    1.88     1.91   7.86630
 4.85000    1.88     1.91   7.86560
 4.80000    1.88     1.91   7.86650
 4.75000    1.88     1.91   7.86470
 4.70000    1.88     1.91   7.86930
 4.65000    1.88     1.91   7.87080
 4.60000    1.88     1.91   7.87510
 4.55000    1.88     1.91   7.87530
 4.50000    1.88     1.90   7.88100
 4.45000    1.88     1.90   7.88800
 4.40000    1.88     1.90   7.89140
 4.35000    1.88     1.90   7.88730
 4.30000    1.88     1.90   7.88700
 4.25000    1.88     1.90   7.88200
 4.20000    1.88     1.90   7.88990
 4.15000    1.88     1.90   7.89420
 4.10000    1.88     1.90   7.89780
 4.05000    1.88     1.90   7.89980
 4.00000    1.88     1.90   7.90380
 3.95000    1.88     1.90   7.90320
 3.90000    1.88     1.90   7.90890
 3.85000    1.88     1.90   7.90230
 3.80000    1.88     1.90   7.89910
 3.75000    1.88     1.90   7.89450
 3.70000    1.88     1.90   7.89420
 3.65000    1.88     1.90   7.89510
 3.60000    1.88     1.90   7.90480
 3.55000    1.88     1.90   7.90800
 3.50000    1.88     1.90   7.90820
 3.45000    1.88     1.90   7.91870
 3.40000    1.88     1.90   7.91800
 3.35000    1.88     1.90   7.90660
 3.30000    1.88     1.90   7.90470
 3.25000    1.88     1.89   7.90030
 3.20000    1.87     1.89   7.90570
 3.15000    1.87     1.89   7.90220
 3.10000    1.87     1.89   7.90610
 3.05000    1.87     1.89   7.90620
 3.00000    1.87     1.89   7.90740
 2.95000    1.87     1.89   7.91220
 2.90000    1.87     1.89   7.91610
 2.85000    1.87     1.89   7.91130
 2.80000    1.87     1.89   7.90560
 2.75000    1.87     1.89   7.90360
 2.70000    1.87     1.89   7.90290
 2.65000    1.87     1.89   7.90190
 2.60000    1.87     1.89   7.90170
 2.55000    1.87     1.89   7.90610
 2.50000    1.87     1.89   7.89980
 2.45000    1.87     1.89   7.90070
 2.40000    1.87     1.89   7.90260
 2.35000    1.87     1.89   7.90370
 2.30000    1.87     1.89   7.90540
 2.25000    1.87     1.88   7.91300
 2.20000    1.87     1.88   7.90900
 2.15000    1.87     1.88   7.90890
 2.10000    1.86     1.88   7.90810
 2.05000    1.86     1.88   7.91210
 2.00000    1.86     1.88   7.92020
 1.95000    1.86     1.88   7.91700
 1.90000    1.86     1.88   7.91620
 1.85000    1.86     1.88   7.91520
 1.80000    1.86     1.88   7.91840
 1.75000    1.86     1.88   7.91820
 1.70000    1.86     1.88   7.91590
 1.65000    1.86     1.88   7.91500
 1.60000    1.86     1.88   7.91410
 1.55000    1.86     1.88   7.91390
 1.50000    1.86     1.88   7.91620
 1.45000    1.86     1.88   7.92200
 1.40000    1.86     1.88   7.93140
 1.35000    1.86     1.88   7.93180
 1.30000    1.86     1.88   7.93500
 1.25000    1.85     1.88   7.94190
 1.20000    1.85     1.88   7.92860
 1.15000    1.85     1.88   7.92230
 1.10000    1.85     1.88   7.92350
 1.05000    1.85     1.88   7.92250
 1.00000    1.85     1.88   7.92060
 0.95000    1.85     1.88   7.92520
 0.90000    1.85     1.87   7.92200
 0.85000    1.85     1.87   7.92700
 0.80000    1.85     1.87   7.93210
 0.75000    1.85     1.87   7.92810
 0.70000    1.85     1.87   7.93230
 0.65000    1.85     1.87   7.92590
 0.60000    1.85     1.87   7.92730
 0.55000    1.85     1.87   7.93440
 0.50000    1.85     1.87   7.93670
 0.45000    1.85     1.87   7.94640
 0.40000    1.85     1.87   7.94390
 0.35000    1.85     1.87   7.93930
 0.30000    1.85     1.87   7.93590
 0.25000    1.85     1.87   7.93740
 0.20000    1.85     1.87   7.93690
 0.15000    1.85     1.87   7.93280
 0.10000    1.85     1.87   7.93000
 0.05000    1.85     1.87   7.92930
-0.00000    1.85     1.87   7.93640
