 Field[T] Tsmpl[K] Tcntr[K] Signal
 7.00000   10.05     8.04   3.77050
 6.95000   10.06     8.05   3.77140
 6.90000   10.07     8.06   3.77020
 6.85000   10.08     8.06   3.76830
 6.80000   10.09     8.05   3.77100
 6.75000   10.10     8.05   3.76940
 6.70000   10.10     8.05   3.76930
 6.65000   10.11     8.03   3.76750
 6.60000   10.12     8.05   3.76270
 6.55000   10.13     8.03   3.75810
 6.50000   10.13     8.02   3.75360
 6.45000   10.13     8.03   3.74830
 6.40000   10.13     8.03   3.74590
 6.35000   10.14     8.01   3.74410
 6.30000   10.14     8.00   3.74180
 6.25000   10.14     8.01   3.73890
 6.20000   10.14     8.02   3.73390
 6.15000   10.15     8.02   3.73270
 6.10000   10.15     8.02   3.73560
 6.05000   10.15     8.01   3.73480
 6.00000   10.15     8.00   3.73600
 5.95000   10.15     8.01   3.73840
 5.90000   10.15     8.01   3.74310
 5.85000   10.15     8.00   3.74770
 5.80000   10.16     8.01   3.75300
 5.75000   10.16     8.01   3.76440
 5.70000   10.16     8.00   3.76460
 5.65000   10.16     8.00   3.77140
 5.60000   10.16     8.00   3.77640
 5.55000   10.16     8.01   3.77790
 5.50000   10.16     7.99   3.78570
 5.45000   10.17     7.99   3.78850
 5.40000   10.17     8.00   3.79010
 5.35000   10.17     8.01   3.79280
 5.30000   10.17     8.02   3.79890
 5.25000   10.18     8.00   3.80510
 5.20000   10.18     8.01   3.80770
 5.15000   10.18     8.02   3.81150
 5.10000   10.19     8.01   3.81840
 5.05000   10.19     7.99   3.82280
 5.00000   10.19     8.01   3.82940
 4.95000   10.20     8.02   3.83920
 4.90000   10.20     8.01   3.84630
 4.85000   10.20     8.00   3.85160
 4.80000   10.21     8.00   3.85810
 4.75000   10.21     8.00   3.86240
 4.70000   10.21     8.00   3.86570
 4.65000   10.22     7.99   3.86840
 4.60000   10.22     7.98   3.87560
 4.55000   10.22     7.99   3.88240
 4.50000   10.22     8.01   3.89440
 4.45000   10.23     8.00   3.90290
 4.40000   10.23     8.00   3.91640
 4.35000   10.23     8.00   3.92470
 4.30000   10.23     8.00   3.93320
 4.25000   10.23     8.02   3.94260
 4.20000   10.23     8.00   3.95020
 4.15000   10.24     8.00   3.95820
 4.10000   10.24     8.00   3.96470
 4.05000   10.23     8.02   3.97370
 4.00000   10.23     8.01   3.99120
 3.95000   10.23     7.99   4.00240
 3.90000   10.23     8.00   4.00820
 3.85000   10.23     8.00   4.00460
 3.80000   10.22     8.01   3.98640
 3.75000   10.22     8.00   3.96610
 3.70000   10.22     8.00   3.92940
 3.65000   10.22     8.00   3.88260
 3.60000   10.22     8.00   3.82650
 3.55000   10.21     7.99   3.75740
 3.50000   10.21     7.99   3.67870
 3.45000   10.21     7.99   3.59050
 3.40000   10.21     7.99   3.49420
 3.35000   10.20     7.99   3.38910
 3.30000   10.20     7.99   3.27700
 3.25000   10.20     7.99   3.16860
 3.20000   10.20     8.01   3.06720
 3.15000   10.20     8.00   2.98160
 3.10000   10.19     7.99   2.91510
 3.05000   10.19     8.01   2.88070
 3.00000   10.19     8.00   2.88800
 2.95000   10.19     7.99   2.92940
 2.90000   10.19     8.00   3.01410
 2.85000   10.19     8.01   3.14030
 2.80000   10.18     8.00   3.29270
 2.75000   10.18     7.99   3.46840
 2.70000   10.18     8.01   3.62910
 2.65000   10.18     8.02   3.75380
 2.60000   10.17     8.01   3.80120
 2.55000   10.17     7.99   3.77150
 2.50000   10.17     7.99   3.67300
 2.45000   10.16     7.99   3.58080
 2.40000   10.16     7.99   3.53610
 2.35000   10.16     8.00   3.53120
 2.30000   10.15     7.99   3.56730
 2.25000   10.15     7.99   3.61750
 2.20000   10.15     8.00   3.66240
 2.15000   10.15     8.00   3.68030
 2.10000   10.15     8.00   3.69100
 2.05000   10.15     7.99   3.69960
 2.00000   10.15     7.99   3.71330
 1.95000   10.15     7.99   3.72850
 1.90000   10.15     7.99   3.73430
 1.85000   10.15     7.99   3.74480
 1.80000   10.14     7.98   3.75060
 1.75000   10.14     8.01   3.76680
 1.70000   10.14     7.99   3.78430
 1.65000   10.14     7.99   3.79810
 1.60000   10.13     8.00   3.81340
 1.55000   10.13     8.00   3.81880
 1.50000   10.13     8.00   3.82340
 1.45000   10.13     7.99   3.82210
 1.40000   10.13     7.99   3.82200
 1.35000   10.13     7.99   3.82320
 1.30000   10.13     8.00   3.81960
 1.25000   10.13     7.99   3.82020
 1.20000   10.12     7.98   3.81260
 1.15000   10.11     7.98   3.81540
 1.10000   10.11     7.99   3.81080
 1.05000   10.10     7.98   3.80650
 1.00000   10.10     7.98   3.80340
 0.95000   10.09     7.98   3.79920
 0.90000   10.08     7.97   3.79960
 0.85000   10.07     7.98   3.79540
 0.80000   10.06     7.97   3.79410
 0.75000   10.05     7.98   3.79060
 0.70000   10.04     7.98   3.78920
 0.65000   10.03     7.97   3.78880
 0.60000   10.02     7.96   3.78460
 0.55000   10.01     7.99   3.78560
 0.50000    9.99     7.96   3.78110
 0.45000    9.98     7.96   3.78310
 0.40000    9.97     7.96   3.78220
 0.35000    9.95     7.95   3.78390
 0.30000    9.94     7.95   3.78110
 0.25000    9.92     7.92   3.77960
 0.20000    9.90     7.90   3.78050
 0.15000    9.88     7.89   3.78130
 0.10000    9.86     7.88   3.78090
 0.05000    9.84     7.88   3.78290
-0.00000    9.82     7.86   3.78290
