 Field[T] Tsmpl[K] Tcntr[K] Signal
 0.00000   48.29    49.27   5.66820
 0.05000   48.29    49.28   5.66390
 0.10000   48.29    49.30   5.66520
 0.15000   48.29    49.33   5.66120
 0.20000   48.29    49.35   5.66220
 0.25000   48.29    49.36   5.66140
 0.30000   48.29    49.38   5.66050
 0.35000   48.29    49.39   5.65450
 0.40000   48.30    49.41   5.65490
 0.45000   48.30    49.42   5.65480
 0.50000   48.31    49.44   5.65370
 0.55000   48.31    49.45   5.65240
 0.60000   48.31    49.46   5.65100
 0.65000   48.32    49.48   5.65470
 0.70000   48.32    49.50   5.64830
 0.75000   48.33    49.51   5.64890
 0.80000   48.33    49.52   5.64880
 0.85000   48.34    49.54   5.64830
 0.90000   48.34    49.55   5.64390
 0.95000   48.35    49.56   5.64440
 1.00000   48.36    49.57   5.64550
 1.05000   48.36    49.59   5.64330
 1.10000   48.37    49.60   5.64290
 1.15000   48.38    49.60   5.64100
 1.20000   48.38    49.61   5.64180
 1.25000   48.39    49.62   5.63950
 1.30000   48.40    49.63   5.64070
 1.35000   48.41    49.64   5.63740
 1.40000   48.41    49.64   5.63520
 1.45000   48.42    49.66   5.63560
 1.50000   48.43    49.67   5.63260
 1.55000   48.44    49.68   5.63170
 1.60000   48.44    49.69   5.63110
 1.65000   48.46    49.70   5.63260
 1.70000   48.46    49.70   5.62690
 1.75000   48.47    49.71   5.62880
 1.80000   48.48    49.71   5.62560
 1.85000   48.49    49.72   5.62580
 1.90000   48.50    49.73   5.62250
 1.95000   48.51    49.74   5.62150
 2.00000   48.52    49.75   5.62340
 2.05000   48.53    49.75   5.61580
 2.10000   48.54    49.76   5.61420
 2.15000   48.55    49.76   5.60870
 2.20000   48.56    49.77   5.60410
 2.25000   48.57    49.77   5.59480
 2.30000   48.58    49.78   5.58530
 2.35000   48.59    49.78   5.57690
 2.40000   48.60    49.79   5.55890
 2.45000   48.61    49.79   5.54270
 2.50000   48.61    49.79   5.51650
 2.55000   48.62    49.80   5.48600
 2.60000   48.63    49.80   5.44800
 2.65000   48.64    49.81   5.40470
 2.70000   48.65    49.82   5.36030
 2.75000   48.66    49.83   5.30450
 2.80000   48.67    49.84   5.25770
 2.85000   48.68    49.84   5.21030
 2.90000   48.69    49.85   5.17110
 2.95000   48.71    49.85   5.13690
 3.00000   48.71    49.85   5.11600
 3.05000   48.72    49.86   5.10770
 3.10000   48.73    49.86   5.10830
 3.15000   48.74    49.87   5.12050
 3.20000   48.75    49.88   5.13890
 3.25000   48.76    49.88   5.16400
 3.30000   48.77    49.89   5.19590
 3.35000   48.78    49.89   5.22940
 3.40000   48.79    49.90   5.26330
 3.45000   48.80    49.90   5.29850
 3.50000   48.81    49.90   5.33350
 3.55000   48.82    49.90   5.36040
 3.60000   48.83    49.91   5.38810
 3.65000   48.84    49.91   5.41220
 3.70000   48.85    49.91   5.43620
 3.75000   48.86    49.91   5.45460
 3.80000   48.87    49.92   5.46880
 3.85000   48.88    49.92   5.48430
 3.90000   48.89    49.93   5.49620
 3.95000   48.90    49.94   5.50870
 4.00000   48.91    49.94   5.51970
 4.05000   48.92    49.95   5.52570
 4.10000   48.93    49.95   5.53270
 4.15000   48.93    49.96   5.53890
 4.20000   48.94    49.97   5.53810
 4.25000   48.95    49.97   5.54630
 4.30000   48.96    49.98   5.55020
 4.35000   48.97    49.98   5.55480
 4.40000   48.98    49.99   5.55810
 4.45000   48.99    49.99   5.55750
 4.50000   49.00    50.00   5.56740
 4.55000   49.01    50.00   5.56600
 4.60000   49.02    50.01   5.57090
 4.65000   49.03    50.01   5.57040
 4.70000   49.03    50.02   5.57400
 4.75000   49.04    50.02   5.57540
 4.80000   49.06    50.03   5.57500
 4.85000   49.07    50.03   5.57460
 4.90000   49.07    50.03   5.57850
 4.95000   49.08    50.04   5.58000
 5.00000   49.09    50.04   5.57840
 5.05000   49.10    50.04   5.58370
 5.10000   49.11    50.05   5.58130
 5.15000   49.12    50.05   5.58420
 5.20000   49.13    50.05   5.58290
 5.25000   49.13    50.05   5.58650
 5.30000   49.14    50.05   5.58590
 5.35000   49.15    50.05   5.58830
 5.40000   49.16    50.05   5.59070
 5.45000   49.17    50.05   5.59020
 5.50000   49.18    50.06   5.59110
 5.55000   49.19    50.06   5.58830
 5.60000   49.20    50.06   5.58820
 5.65000   49.21    50.06   5.59320
 5.70000   49.21    50.06   5.58910
 5.75000   49.22    50.06   5.58890
 5.80000   49.23    50.06   5.59160
 5.85000   49.24    50.06   5.59380
 5.90000   49.25    50.06   5.59300
 5.95000   49.25    50.05   5.59100
 6.00000   49.26    50.05   5.59160
 6.05000   49.27    50.05   5.59340
 6.10000   49.28    50.05   5.59460
 6.15000   49.29    50.05   5.59560
 6.20000   49.30    50.05   5.59330
 6.25000   49.30    50.05   5.59450
 6.30000   49.31    50.05   5.59120
 6.35000   49.32    50.05   5.59200
 6.40000   49.33    50.05   5.59490
 6.45000   49.34    50.05   5.59310
 6.50000   49.35    50.04   5.59380
 6.55000   49.35    50.04   5.59810
 6.60000   49.36    50.04   5.59790
 6.65000   49.37    50.04   5.59220
 6.70000   49.38    50.04   5.59580
 6.75000   49.39    50.04   5.59670
 6.80000   49.39    50.04   5.59750
 6.85000   49.40    50.04   5.59610
 6.90000   49.41    50.04   5.59960
 6.95000   49.42    50.04   5.60000
 7.00000   49.43    50.04   5.59960
