 Field[T] Tsmpl[K] Tcntr[K] Signal
 0.00000   28.82    27.99   2.33110
 0.05000   28.83    27.99   2.33320
 0.10000   28.83    27.98   2.33300
 0.15000   28.83    27.98   2.33670
 0.20000   28.83    27.99   2.32930
 0.25000   28.83    27.99   2.34100
 0.30000   28.83    27.99   2.33460
 0.35000   28.83    28.00   2.33630
 0.40000   28.84    28.01   2.33430
 0.45000   28.84    28.01   2.32790
 0.50000   28.84    28.01   2.33180
 0.55000   28.84    28.01   2.32720
 0.60000   28.84    28.01   2.32570
 0.65000   28.84    28.01   2.32110
 0.70000   28.84    28.01   2.32330
 0.75000   28.84    28.01   2.32700
 0.80000   28.84    28.01   2.32740
 0.85000   28.85    28.00   2.32120
 0.90000   28.85    28.00   2.32780
 0.95000   28.85    27.99   2.32190
 1.00000   28.85    27.99   2.32230
 1.05000   28.85    27.99   2.32540
 1.10000   28.85    27.99   2.32390
 1.15000   28.85    27.99   2.32550
 1.20000   28.85    27.99   2.32480
 1.25000   28.85    27.99   2.32140
 1.30000   28.85    27.99   2.32360
 1.35000   28.85    27.99   2.32160
 1.40000   28.86    28.00   2.32220
 1.45000   28.86    28.01   2.32260
 1.50000   28.86    28.01   2.32440
 1.55000   28.86    28.01   2.32040
 1.60000   28.86    28.01   2.32840
 1.65000   28.86    28.01   2.31990
 1.70000   28.86    28.01   2.32180
 1.75000   28.86    28.01   2.32430
 1.80000   28.86    28.01   2.31710
 1.85000   28.86    28.00   2.32750
 1.90000   28.86    28.00   2.31870
 1.95000   28.86    28.00   2.31730
 2.00000   28.86    28.00   2.31740
 2.05000   28.86    27.99   2.31230
 2.10000   28.86    27.99   2.31890
 2.15000   28.86    27.99   2.31690
 2.20000   28.87    27.99   2.31270
 2.25000   28.87    27.99   2.31360
 2.30000   28.87    27.99   2.30640
 2.35000   28.87    27.99   2.31080
 2.40000   28.87    28.00   2.31030
 2.45000   28.87    28.01   2.30780
 2.50000   28.87    28.01   2.31590
 2.55000   28.87    28.01   2.30960
 2.60000   28.87    28.01   2.31000
 2.65000   28.87    28.02   2.30610
 2.70000   28.87    28.02   2.30420
 2.75000   28.87    28.02   2.29970
 2.80000   28.88    28.02   2.29950
 2.85000   28.88    28.02   2.30420
 2.90000   28.88    28.02   2.29590
 2.95000   28.88    28.02   2.29930
 3.00000   28.88    28.02   2.29130
 3.05000   28.88    28.02   2.29430
 3.10000   28.88    28.01   2.28610
 3.15000   28.88    28.01   2.28850
 3.20000   28.89    28.01   2.28350
 3.25000   28.89    28.01   2.27710
 3.30000   28.89    28.01   2.27580
 3.35000   28.89    28.01   2.27140
 3.40000   28.89    28.01   2.27120
 3.45000   28.89    28.01   2.26230
 3.50000   28.89    28.01   2.25860
 3.55000   28.89    28.01   2.25590
 3.60000   28.90    28.02   2.24990
 3.65000   28.90    28.03   2.23720
 3.70000   28.90    28.03   2.23070
 3.75000   28.90    28.03   2.21520
 3.80000   28.90    28.03   2.20720
 3.85000   28.90    28.03   2.18190
 3.90000   28.90    28.04   2.15980
 3.95000   28.90    28.03   2.11930
 4.00000   28.91    28.03   2.07760
 4.05000   28.91    28.03   2.02800
 4.10000   28.91    28.03   1.94960
 4.15000   28.91    28.03   1.87960
 4.20000   28.91    28.03   1.78340
 4.25000   28.92    28.03   1.69230
 4.30000   28.92    28.03   1.59040
 4.35000   28.92    28.02   1.49710
 4.40000   28.92    28.02   1.40400
 4.45000   28.92    28.02   1.31890
 4.50000   28.93    28.02   1.25400
 4.55000   28.93    28.02   1.19700
 4.60000   28.93    28.03   1.15490
 4.65000   28.93    28.04   1.12660
 4.70000   28.93    28.05   1.11080
 4.75000   28.94    28.05   1.10570
 4.80000   28.94    28.06   1.11400
 4.85000   28.94    28.07   1.12380
 4.90000   28.94    28.07   1.15610
 4.95000   28.94    28.08   1.18680
 5.00000   28.95    28.08   1.23340
 5.05000   28.95    28.08   1.28270
 5.10000   28.95    28.08   1.33750
 5.15000   28.95    28.09   1.40210
 5.20000   28.95    28.09   1.46220
 5.25000   28.96    28.09   1.53070
 5.30000   28.96    28.08   1.59830
 5.35000   28.96    28.08   1.66440
 5.40000   28.96    28.08   1.73440
 5.45000   28.97    28.07   1.79960
 5.50000   28.97    28.07   1.85920
 5.55000   28.98    28.06   1.91810
 5.60000   28.98    28.06   1.97020
 5.65000   28.98    28.05   2.01490
 5.70000   28.99    28.05   2.05650
 5.75000   28.99    28.05   2.09560
 5.80000   28.99    28.05   2.13050
 5.85000   28.99    28.05   2.15510
 5.90000   29.00    28.05   2.18350
 5.95000   29.00    28.05   2.20160
 6.00000   29.00    28.04   2.21580
 6.05000   29.01    28.04   2.23500
 6.10000   29.01    28.04   2.24280
 6.15000   29.01    28.04   2.25300
 6.20000   29.02    28.03   2.26330
 6.25000   29.02    28.03   2.26780
 6.30000   29.02    28.03   2.27850
 6.35000   29.02    28.03   2.28360
 6.40000   29.03    28.03   2.28650
 6.45000   29.03    28.03   2.28960
 6.50000   29.03    28.03   2.29270
 6.55000   29.04    28.03   2.29740
 6.60000   29.04    28.02   2.29460
 6.65000   29.05    28.02   2.29900
 6.70000   29.05    28.02   2.29600
 6.75000   29.05    28.02   2.30000
 6.80000   29.06    28.01   2.30160
 6.85000   29.06    28.00   2.30130
 6.90000   29.06    28.00   2.30210
 6.95000   29.06    28.00   2.30150
 7.00000   29.07    28.00   2.30530
