 Field[T] Tsmpl[K] Tcntr[K] Signal
 7.00000   49.81    50.01   4.69330
 6.95000   49.82    50.01   4.69520
 6.90000   49.82    50.01   4.69260
 6.85000   49.82    50.01   4.69350
 6.80000   49.83    50.01   4.69380
 6.75000   49.84    50.01   4.68820
 6.70000   49.84    50.01   4.67960
 6.65000   49.85    50.01   4.67650
 6.60000   49.85    50.01   4.67330
 6.55000   49.86    50.01   4.66990
 6.50000   49.86    50.01   4.66470
 6.45000   49.87    50.01   4.65760
 6.40000   49.88    50.01   4.65180
 6.35000   49.88    50.01   4.64110
 6.30000   49.89    50.00   4.63490
 6.25000   49.89    50.00   4.62770
 6.20000   49.90    50.00   4.61610
 6.15000   49.91    50.00   4.61060
 6.10000   49.91    50.01   4.59930
 6.05000   49.91    50.01   4.58570
 6.00000   49.92    50.01   4.57350
 5.95000   49.92    50.01   4.55850
 5.90000   49.93    50.01   4.54330
 5.85000   49.93    50.01   4.52570
 5.80000   49.94    50.01   4.50570
 5.75000   49.94    50.01   4.48350
 5.70000   49.95    50.01   4.46250
 5.65000   49.95    50.01   4.43750
 5.60000   49.96    50.01   4.40970
 5.55000   49.96    50.01   4.37960
 5.50000   49.96    50.01   4.34960
 5.45000   49.97    50.01   4.31620
 5.40000   49.97    50.01   4.29060
 5.35000   49.98    50.01   4.26040
 5.30000   49.98    50.01   4.22670
 5.25000   49.99    50.01   4.19730
 5.20000   49.99    50.00   4.16870
 5.15000   50.00    50.00   4.14400
 5.10000   50.00    50.00   4.11850
 5.05000   50.00    50.00   4.10260
 5.00000   50.01    50.00   4.08580
 4.95000   50.01    50.00   4.07360
 4.90000   50.02    50.00   4.07160
 4.85000   50.02    50.00   4.07860
 4.80000   50.03    50.00   4.09070
 4.75000   50.03    50.00   4.10980
 4.70000   50.03    50.00   4.13650
 4.65000   50.04    50.00   4.17320
 4.60000   50.05    50.00   4.21670
 4.55000   50.05    50.00   4.25110
 4.50000   50.06    50.01   4.31270
 4.45000   50.06    50.01   4.35030
 4.40000   50.06    50.01   4.40130
 4.35000   50.07    50.01   4.44760
 4.30000   50.07    50.01   4.49400
 4.25000   50.07    50.01   4.53300
 4.20000   50.08    50.01   4.56030
 4.15000   50.08    50.01   4.59520
 4.10000   50.09    50.01   4.61800
 4.05000   50.09    50.01   4.63990
 4.00000   50.09    50.00   4.65610
 3.95000   50.10    50.00   4.66670
 3.90000   50.10    50.00   4.68600
 3.85000   50.11    50.00   4.69380
 3.80000   50.11    50.00   4.70170
 3.75000   50.11    50.00   4.70690
 3.70000   50.12    50.00   4.70750
 3.65000   50.12    50.00   4.71590
 3.60000   50.12    50.00   4.71900
 3.55000   50.13    50.00   4.71970
 3.50000   50.13    50.00   4.71690
 3.45000   50.14    50.00   4.72120
 3.40000   50.14    50.00   4.72180
 3.35000   50.15    50.00   4.71650
 3.30000   50.15    50.00   4.71650
 3.25000   50.15    50.00   4.72290
 3.20000   50.15    50.00   4.71760
 3.15000   50.16    50.00   4.71790
 3.10000   50.16    50.00   4.71750
 3.05000   50.17    50.00   4.72290
 3.00000   50.17    50.00   4.71900
 2.95000   50.17    50.00   4.71630
 2.90000   50.18    50.00   4.71790
 2.85000   50.18    50.00   4.71390
 2.80000   50.19    50.00   4.71900
 2.75000   50.19    50.00   4.71700
 2.70000   50.19    50.00   4.71870
 2.65000   50.20    50.00   4.72420
 2.60000   50.20    50.00   4.71830
 2.55000   50.21    50.00   4.72110
 2.50000   50.21    50.00   4.71680
 2.45000   50.21    50.00   4.71990
 2.40000   50.22    50.00   4.72290
 2.35000   50.22    50.00   4.72490
 2.30000   50.23    50.00   4.72120
 2.25000   50.23    50.00   4.72560
 2.20000   50.23    50.00   4.72310
 2.15000   50.23    50.00   4.72330
 2.10000   50.24    50.00   4.71980
 2.05000   50.24    50.00   4.71840
 2.00000   50.24    50.00   4.72040
 1.95000   50.25    50.00   4.71890
 1.90000   50.25    50.00   4.72060
 1.85000   50.25    50.00   4.71880
 1.80000   50.25    50.00   4.72330
 1.75000   50.26    50.00   4.72950
 1.70000   50.26    50.00   4.72990
 1.65000   50.26    50.00   4.72920
 1.60000   50.27    49.99   4.72720
 1.55000   50.27    49.99   4.72490
 1.50000   50.27    49.99   4.73040
 1.45000   50.28    49.99   4.73040
 1.40000   50.28    49.99   4.73520
 1.35000   50.28    49.99   4.73320
 1.30000   50.28    49.99   4.73540
 1.25000   50.29    49.99   4.73630
 1.20000   50.29    49.99   4.73500
 1.15000   50.30    49.99   4.74070
 1.10000   50.30    49.99   4.73990
 1.05000   50.30    49.99   4.74250
 1.00000   50.30    49.99   4.74270
 0.95000   50.31    49.99   4.74110
 0.90000   50.31    49.99   4.74420
 0.85000   50.31    49.98   4.74600
 0.80000   50.31    49.98   4.75010
 0.75000   50.31    49.98   4.75270
 0.70000   50.32    49.99   4.75050
 0.65000   50.32    49.99   4.75740
 0.60000   50.32    49.98   4.75240
 0.55000   50.32    49.98   4.75600
 0.50000   50.33    49.98   4.75380
 0.45000   50.33    49.97   4.75970
 0.40000   50.33    49.97   4.76450
 0.35000   50.34    49.97   4.76360
 0.30000   50.34    49.96   4.76940
 0.25000   50.34    49.96   4.76730
 0.20000   50.35    49.95   4.77020
 0.15000   50.35    49.95   4.77380
 0.10000   50.35    49.94   4.77680
 0.05000   50.35    49.93   4.77130
-0.00000   50.35    49.92   4.76450
