 Field[T] Tsmpl[K] Tcntr[K] Signal   Mirror[MM]
 0.00000    1.84     1.84   0.44751  -18.4019
 0.02000    1.84     1.84   0.44807  -18.4026
 0.04000    1.84     1.84   0.44869  -18.4045
 0.06000    1.84     1.84   0.44654  -18.4041
 0.08000    1.84     1.84   0.44570  -18.4041
 0.10000    1.84     1.84   0.44436  -18.4042
 0.12000    1.84     1.84   0.44029  -18.4047
 0.14000    1.84     1.84   0.43790  -18.4046
 0.16000    1.84     1.84   0.43230  -18.4037
 0.18000    1.84     1.84   0.42762  -18.4048
 0.20000    1.84     1.84   0.42292  -18.4070
 0.22000    1.84     1.84   0.41519  -18.4086
 0.24000    1.84     1.84   0.40743  -18.4116
 0.26000    1.84     1.84   0.39930  -18.4163
 0.28000    1.84     1.84   0.39365  -18.4210
 0.30000    1.84     1.84   0.38907  -18.4281
 0.32000    1.84     1.84   0.38921  -18.4362
 0.34000    1.84     1.84   0.39715  -18.4423
 0.36000    1.84     1.84   0.40347  -18.4468
 0.38000    1.84     1.84   0.40720  -18.4508
 0.40000    1.84     1.84   0.41428  -18.4551
 0.42000    1.84     1.84   0.42322  -18.4596
 0.44000    1.84     1.84   0.42966  -18.4622
 0.46000    1.84     1.84   0.43438  -18.4658
 0.48000    1.84     1.84   0.44223  -18.4670
 0.50000    1.84     1.84   0.45154  -18.4698
 0.52000    1.84     1.84   0.45712  -18.4715
 0.54000    1.84     1.84   0.46465  -18.4734
 0.56000    1.84     1.84   0.47467  -18.4750
 0.58000    1.84     1.84   0.48058  -18.4753
 0.60000    1.84     1.84   0.48905  -18.4775
 0.62000    1.84     1.84   0.49764  -18.4786
 0.64000    1.84     1.84   0.50700  -18.4786
 0.66000    1.84     1.84   0.51529  -18.4790
 0.68000    1.84     1.84   0.52307  -18.4793
 0.70000    1.84     1.84   0.53038  -18.4789
 0.72000    1.84     1.84   0.53772  -18.4772
 0.74000    1.84     1.84   0.54390  -18.4769
 0.76000    1.84     1.84   0.55030  -18.4761
 0.78000    1.84     1.84   0.55370  -18.4735
 0.80000    1.84     1.84   0.55923  -18.4736
 0.82000    1.84     1.84   0.56331  -18.4722
 0.84000    1.84     1.84   0.56738  -18.4705
 0.86000    1.84     1.84   0.57137  -18.4699
 0.88000    1.84     1.84   0.57178  -18.4676
 0.90000    1.84     1.84   0.57380  -18.4662
 0.92000    1.84     1.84   0.57718  -18.4656
 0.94000    1.84     1.84   0.57868  -18.4641
 0.96000    1.84     1.84   0.57910  -18.4638
 0.98000    1.84     1.84   0.58072  -18.4627
 1.00000    1.84     1.84   0.58174  -18.4616
 1.02000    1.84     1.84   0.58093  -18.4593
 1.04000    1.84     1.84   0.58290  -18.4596
 1.06000    1.84     1.84   0.58558  -18.4606
 1.08000    1.84     1.84   0.58466  -18.4582
 1.10000    1.84     1.84   0.58781  -18.4584
 1.12000    1.84     1.84   0.58758  -18.4576
 1.14000    1.84     1.84   0.58811  -18.4573
 1.16000    1.84     1.84   0.58915  -18.4570
 1.18000    1.84     1.84   0.58910  -18.4567
 1.20000    1.84     1.84   0.59017  -18.4567
 1.22000    1.84     1.84   0.59033  -18.4563
 1.24000    1.84     1.84   0.59082  -18.4561
 1.26000    1.84     1.84   0.58922  -18.4553
 1.28000    1.84     1.84   0.58954  -18.4550
 1.30000    1.84     1.84   0.59077  -18.4549
 1.32000    1.84     1.84   0.59010  -18.4538
 1.34000    1.84     1.84   0.59105  -18.4542
 1.36000    1.84     1.84   0.58922  -18.4532
 1.38000    1.84     1.84   0.59174  -18.4536
 1.40000    1.84     1.84   0.59272  -18.4540
 1.42000    1.84     1.84   0.59309  -18.4531
 1.44000    1.84     1.84   0.59262  -18.4530
 1.46000    1.84     1.84   0.59239  -18.4525
 1.48000    1.84     1.84   0.59311  -18.4523
 1.50000    1.84     1.84   0.59397  -18.4528
 1.52000    1.84     1.84   0.59341  -18.4526
 1.54000    1.84     1.84   0.59207  -18.4521
 1.56000    1.84     1.84   0.59290  -18.4519
 1.58000    1.84     1.84   0.59360  -18.4515
 1.60000    1.84     1.84   0.59573  -18.4520
 1.62000    1.84     1.84   0.59299  -18.4509
 1.64000    1.84     1.84   0.59401  -18.4506
 1.66000    1.84     1.84   0.59429  -18.4506
 1.68000    1.84     1.84   0.59262  -18.4512
 1.70000    1.84     1.84   0.59413  -18.4507
 1.72000    1.84     1.84   0.59503  -18.4498
 1.74000    1.84     1.84   0.59343  -18.4493
 1.76000    1.84     1.84   0.59387  -18.4507
 1.78000    1.84     1.84   0.59316  -18.4493
 1.80000    1.84     1.84   0.59461  -18.4501
 1.82000    1.84     1.84   0.59591  -18.4507
 1.84000    1.84     1.84   0.59591  -18.4505
 1.86000    1.84     1.84   0.59575  -18.4508
 1.88000    1.84     1.84   0.59559  -18.4501
 1.90000    1.84     1.84   0.59531  -18.4503
 1.92000    1.84     1.84   0.59427  -18.4487
 1.94000    1.84     1.84   0.59610  -18.4498
 1.96000    1.84     1.84   0.59633  -18.4495
 1.98000    1.84     1.84   0.59566  -18.4485
 2.00000    1.84     1.84   0.59549  -18.4495
 2.00000    1.84     1.84   0.59580  -18.4495
 1.98000    1.84     1.84   0.59475  -18.4495
 1.96000    1.84     1.84   0.59443  -18.4492
 1.94000    1.84     1.84   0.59614  -18.4495
 1.92000    1.84     1.84   0.59630  -18.4501
 1.90000    1.84     1.84   0.59642  -18.4507
 1.88000    1.84     1.84   0.59468  -18.4496
 1.86000    1.84     1.84   0.59649  -18.4502
 1.84000    1.84     1.84   0.59621  -18.4496
 1.82000    1.84     1.84   0.59661  -18.4497
 1.80000    1.84     1.84   0.59739  -18.4503
 1.78000    1.84     1.84   0.59605  -18.4501
 1.76000    1.84     1.84   0.59642  -18.4504
 1.74000    1.84     1.84   0.59630  -18.4509
 1.72000    1.84     1.84   0.59661  -18.4510
 1.70000    1.84     1.84   0.59568  -18.4514
 1.68000    1.84     1.84   0.59614  -18.4520
 1.66000    1.84     1.84   0.59397  -18.4510
 1.64000    1.84     1.84   0.59410  -18.4519
 1.62000    1.84     1.84   0.59492  -18.4516
 1.60000    1.84     1.84   0.59573  -18.4518
 1.58000    1.84     1.84   0.59591  -18.4526
 1.56000    1.84     1.84   0.59561  -18.4522
 1.54000    1.84     1.84   0.59420  -18.4527
 1.52000    1.84     1.84   0.59531  -18.4527
 1.50000    1.84     1.84   0.59394  -18.4516
 1.48000    1.84     1.84   0.59448  -18.4520
 1.46000    1.84     1.84   0.59466  -18.4522
 1.44000    1.84     1.84   0.59480  -18.4522
 1.42000    1.84     1.84   0.59378  -18.4529
 1.40000    1.84     1.84   0.59424  -18.4530
 1.38000    1.84     1.84   0.59380  -18.4531
 1.36000    1.84     1.84   0.59415  -18.4541
 1.34000    1.84     1.84   0.59450  -18.4545
 1.32000    1.84     1.84   0.59304  -18.4538
 1.30000    1.84     1.84   0.59228  -18.4544
 1.28000    1.84     1.84   0.59089  -18.4546
 1.26000    1.84     1.84   0.59188  -18.4548
 1.24000    1.84     1.84   0.59165  -18.4558
 1.22000    1.84     1.84   0.59109  -18.4559
 1.20000    1.84     1.84   0.59059  -18.4565
 1.18000    1.84     1.84   0.59065  -18.4562
 1.16000    1.84     1.84   0.58894  -18.4564
 1.14000    1.84     1.84   0.58922  -18.4571
 1.12000    1.84     1.84   0.58855  -18.4571
 1.10000    1.84     1.84   0.58871  -18.4578
 1.08000    1.84     1.84   0.58785  -18.4587
 1.06000    1.84     1.84   0.58755  -18.4594
 1.04000    1.84     1.84   0.58582  -18.4594
 1.02000    1.84     1.84   0.58563  -18.4601
 1.00000    1.84     1.84   0.58406  -18.4606
 0.98000    1.84     1.84   0.58419  -18.4623
 0.96000    1.84     1.84   0.58276  -18.4628
 0.94000    1.84     1.84   0.58054  -18.4638
 0.92000    1.84     1.84   0.58065  -18.4653
 0.90000    1.84     1.84   0.57817  -18.4658
 0.88000    1.84     1.84   0.57732  -18.4669
 0.86000    1.84     1.84   0.57509  -18.4686
 0.84000    1.84     1.84   0.57132  -18.4689
 0.82000    1.84     1.84   0.56854  -18.4706
 0.80000    1.84     1.84   0.56317  -18.4708
 0.78000    1.84     1.84   0.55877  -18.4726
 0.76000    1.84     1.84   0.55488  -18.4733
 0.74000    1.84     1.84   0.54877  -18.4743
 0.72000    1.84     1.84   0.54293  -18.4755
 0.70000    1.84     1.84   0.53580  -18.4761
 0.68000    1.84     1.84   0.52953  -18.4767
 0.66000    1.84     1.84   0.52281  -18.4780
 0.64000    1.84     1.84   0.51466  -18.4777
 0.62000    1.84     1.84   0.50593  -18.4774
 0.60000    1.84     1.84   0.49711  -18.4763
 0.58000    1.84     1.84   0.48993  -18.4760
 0.56000    1.84     1.84   0.48139  -18.4750
 0.54000    1.84     1.84   0.47379  -18.4736
 0.52000    1.84     1.84   0.46490  -18.4714
 0.50000    1.84     1.84   0.45835  -18.4692
 0.48000    1.84     1.84   0.45196  -18.4673
 0.46000    1.84     1.84   0.44297  -18.4660
 0.44000    1.84     1.84   0.43619  -18.4623
 0.42000    1.84     1.84   0.43070  -18.4591
 0.40000    1.84     1.84   0.42378  -18.4567
 0.38000    1.84     1.84   0.41602  -18.4524
 0.36000    1.84     1.84   0.41018  -18.4476
 0.34000    1.84     1.84   0.40516  -18.4432
 0.32000    1.84     1.84   0.39935  -18.4387
 0.30000    1.84     1.84   0.39388  -18.4315
 0.28000    1.84     1.84   0.39685  -18.4227
 0.26000    1.84     1.84   0.40152  -18.4170
 0.24000    1.84     1.84   0.40792  -18.4105
 0.22000    1.84     1.84   0.41727  -18.4075
 0.20000    1.84     1.84   0.42584  -18.4057
 0.18000    1.84     1.84   0.43211  -18.4044
 0.16000    1.84     1.84   0.43818  -18.4040
 0.14000    1.84     1.84   0.44244  -18.4037
 0.12000    1.84     1.84   0.44429  -18.4021
 0.10000    1.84     1.84   0.44777  -18.4023
 0.08000    1.84     1.84   0.45008  -18.4011
 0.06000    1.84     1.84   0.45272  -18.4021
 0.04000    1.84     1.84   0.45434  -18.4008
 0.02000    1.84     1.84   0.45508  -18.4009
 -0.00000    1.84     1.84   0.45476  -18.4011
