 Field[T] Tsmpl[K] Tcntr[K] Signal   Mirror[MM]
 0.00000    1.86     1.86   0.15542  -18.9432
 0.05000    1.86     1.86   0.15557  -18.9432
 0.10000    1.86     1.86   0.15581  -18.9431
 0.15000    1.86     1.86   0.15548  -18.9429
 0.20000    1.86     1.86   0.15569  -18.9430
 0.25000    1.86     1.86   0.15545  -18.9429
 0.30000    1.86     1.86   0.15512  -18.9425
 0.35000    1.86     1.86   0.15482  -18.9424
 0.40000    1.86     1.86   0.15449  -18.9423
 0.45000    1.86     1.86   0.15404  -18.9419
 0.50000    1.86     1.86   0.15359  -18.9417
 0.55000    1.86     1.86   0.15308  -18.9414
 0.60000    1.86     1.86   0.15269  -18.9410
 0.65000    1.86     1.86   0.15197  -18.9405
 0.70000    1.86     1.86   0.15119  -18.9398
 0.75000    1.86     1.86   0.15008  -18.9391
 0.80000    1.86     1.86   0.14852  -18.9379
 0.85000    1.86     1.86   0.14537  -18.9370
 0.90000    1.86     1.86   0.14201  -18.9375
 0.95000    1.86     1.86   0.13898  -18.9388
 1.00000    1.86     1.86   0.13646  -18.9404
 1.05000    1.86     1.86   0.13478  -18.9428
 1.10000    1.86     1.86   0.13403  -18.9451
 1.15000    1.86     1.86   0.13418  -18.9471
 1.20000    1.86     1.86   0.13481  -18.9492
 1.25000    1.86     1.86   0.13589  -18.9506
 1.30000    1.86     1.86   0.13703  -18.9519
 1.35000    1.86     1.86   0.13826  -18.9525
 1.40000    1.86     1.86   0.13946  -18.9533
 1.45000    1.86     1.86   0.14051  -18.9536
 1.50000    1.86     1.86   0.14141  -18.9538
 1.55000    1.86     1.86   0.14201  -18.9538
 1.60000    1.86     1.86   0.14276  -18.9537
 1.65000    1.86     1.86   0.14318  -18.9536
 1.70000    1.86     1.86   0.14369  -18.9529
 1.75000    1.86     1.86   0.14399  -18.9527
 1.80000    1.86     1.86   0.14420  -18.9527
 1.85000    1.86     1.86   0.14435  -18.9527
 1.90000    1.86     1.86   0.14462  -18.9526
 1.95000    1.86     1.86   0.14459  -18.9522
 2.00000    1.86     1.86   0.14492  -18.9522
 2.05000    1.86     1.86   0.14492  -18.9518
 2.10000    1.86     1.86   0.14495  -18.9519
 2.15000    1.86     1.86   0.14510  -18.9519
 2.20000    1.86     1.86   0.14516  -18.9519
 2.25000    1.86     1.86   0.14531  -18.9521
 2.30000    1.86     1.86   0.14540  -18.9518
 2.35000    1.86     1.86   0.14537  -18.9515
 2.40000    1.86     1.86   0.14531  -18.9513
 2.45000    1.86     1.86   0.14534  -18.9514
 2.50000    1.86     1.86   0.14531  -18.9512
 2.55000    1.86     1.86   0.14513  -18.9512
 2.60000    1.86     1.86   0.14525  -18.9511
 2.65000    1.86     1.86   0.14525  -18.9510
 2.70000    1.86     1.86   0.14516  -18.9509
 2.75000    1.86     1.86   0.14525  -18.9508
 2.80000    1.86     1.86   0.14534  -18.9510
 2.85000    1.86     1.86   0.14531  -18.9510
 2.90000    1.86     1.86   0.14528  -18.9509
 2.95000    1.86     1.86   0.14525  -18.9507
 3.00000    1.86     1.86   0.14519  -18.9510
 3.05000    1.86     1.86   0.14495  -18.9508
 3.10000    1.86     1.86   0.14516  -18.9509
 3.15000    1.86     1.86   0.14510  -18.9509
 3.20000    1.86     1.86   0.14507  -18.9509
 3.25000    1.86     1.86   0.14504  -18.9504
 3.30000    1.86     1.86   0.14492  -18.9503
 3.35000    1.86     1.86   0.14504  -18.9503
 3.40000    1.86     1.86   0.14507  -18.9502
 3.45000    1.86     1.86   0.14474  -18.9502
 3.50000    1.86     1.86   0.14492  -18.9500
 3.55000    1.86     1.86   0.14480  -18.9500
 3.60000    1.86     1.86   0.14477  -18.9503
 3.65000    1.86     1.86   0.14486  -18.9497
 3.70000    1.86     1.86   0.14477  -18.9498
 3.75000    1.86     1.86   0.14471  -18.9496
 3.80000    1.86     1.86   0.14459  -18.9495
 3.85000    1.86     1.86   0.14465  -18.9496
 3.90000    1.86     1.86   0.14474  -18.9496
 3.95000    1.86     1.86   0.14462  -18.9496
 4.00000    1.86     1.86   0.14456  -18.9492
 4.00000    1.86     1.86   0.14450  -18.9495
 3.95000    1.86     1.86   0.14438  -18.9492
 3.90000    1.86     1.86   0.14435  -18.9493
 3.85000    1.86     1.86   0.14438  -18.9493
 3.80000    1.86     1.86   0.14447  -18.9493
 3.75000    1.86     1.86   0.14432  -18.9491
 3.70000    1.86     1.86   0.14426  -18.9488
 3.65000    1.86     1.86   0.14411  -18.9491
 3.60000    1.86     1.86   0.14405  -18.9494
 3.55000    1.86     1.86   0.14420  -18.9492
 3.50000    1.86     1.86   0.14393  -18.9497
 3.45000    1.86     1.86   0.14399  -18.9495
 3.40000    1.86     1.86   0.14384  -18.9491
 3.35000    1.86     1.86   0.14372  -18.9491
 3.30000    1.86     1.86   0.14381  -18.9494
 3.25000    1.86     1.86   0.14375  -18.9492
 3.20000    1.86     1.86   0.14366  -18.9489
 3.15000    1.86     1.86   0.14357  -18.9488
 3.10000    1.86     1.86   0.14345  -18.9491
 3.05000    1.86     1.86   0.14357  -18.9494
 3.00000    1.86     1.86   0.14345  -18.9490
 2.95000    1.86     1.86   0.14342  -18.9490
 2.90000    1.86     1.86   0.14324  -18.9493
 2.85000    1.86     1.86   0.14318  -18.9489
 2.80000    1.86     1.86   0.14312  -18.9488
 2.75000    1.86     1.86   0.14297  -18.9490
 2.70000    1.86     1.86   0.14312  -18.9491
 2.65000    1.86     1.86   0.14294  -18.9491
 2.60000    1.86     1.86   0.14291  -18.9492
 2.55000    1.86     1.86   0.14285  -18.9490
 2.50000    1.86     1.86   0.14261  -18.9491
 2.45000    1.86     1.86   0.14258  -18.9491
 2.40000    1.86     1.86   0.14252  -18.9490
 2.35000    1.86     1.86   0.14234  -18.9490
 2.30000    1.86     1.86   0.14225  -18.9492
 2.25000    1.86     1.86   0.14198  -18.9490
 2.20000    1.86     1.86   0.14204  -18.9495
 2.15000    1.86     1.86   0.14171  -18.9492
 2.10000    1.86     1.86   0.14171  -18.9489
 2.05000    1.86     1.86   0.14147  -18.9492
 2.00000    1.86     1.86   0.14135  -18.9497
 1.95000    1.86     1.86   0.14120  -18.9494
 1.90000    1.86     1.86   0.14060  -18.9490
 1.85000    1.86     1.86   0.14048  -18.9489
 1.80000    1.86     1.86   0.14000  -18.9490
 1.75000    1.86     1.86   0.13925  -18.9482
 1.70000    1.86     1.86   0.13961  -18.9493
 1.65000    1.86     1.86   0.13916  -18.9494
 1.60000    1.86     1.86   0.13835  -18.9492
 1.55000    1.86     1.86   0.13790  -18.9491
 1.50000    1.86     1.86   0.13694  -18.9492
 1.45000    1.86     1.86   0.13595  -18.9489
 1.40000    1.86     1.86   0.13472  -18.9483
 1.35000    1.86     1.86   0.13364  -18.9477
 1.30000    1.86     1.86   0.13262  -18.9474
 1.25000    1.86     1.86   0.13115  -18.9464
 1.20000    1.86     1.86   0.13022  -18.9450
 1.15000    1.86     1.86   0.12956  -18.9428
 1.10000    1.86     1.86   0.12929  -18.9407
 1.05000    1.86     1.86   0.12974  -18.9382
 1.00000    1.86     1.86   0.13133  -18.9359
 0.95000    1.86     1.86   0.13340  -18.9340
 0.90000    1.86     1.86   0.13622  -18.9321
 0.85000    1.86     1.86   0.13943  -18.9316
 0.80000    1.86     1.86   0.14270  -18.9324
 0.75000    1.86     1.86   0.14417  -18.9333
 0.70000    1.86     1.86   0.14531  -18.9337
 0.65000    1.86     1.86   0.14594  -18.9344
 0.60000    1.86     1.86   0.14654  -18.9348
 0.55000    1.86     1.86   0.14687  -18.9348
 0.50000    1.86     1.86   0.14732  -18.9349
 0.45000    1.86     1.86   0.14786  -18.9348
 0.40000    1.86     1.86   0.14819  -18.9347
 0.35000    1.86     1.86   0.14834  -18.9349
 0.30000    1.86     1.86   0.14876  -18.9349
 0.25000    1.86     1.86   0.14894  -18.9350
 0.20000    1.86     1.86   0.14912  -18.9352
 0.15000    1.86     1.86   0.14939  -18.9351
 0.10000    1.86     1.86   0.14966  -18.9351
 0.05000    1.86     1.86   0.14951  -18.9349
 -0.00000    1.86     1.86   0.14957  -18.9348
