 Field[T] Tsmpl[K] Tcntr[K] Signal   Mirror[MM]
 0.00000    1.83     1.83   0.09877  -19.0525
 0.05000    1.83     1.83   0.09875  -19.0525
 0.10000    1.83     1.83   0.09865  -19.0524
 0.15000    1.83     1.83   0.09862  -19.0526
 0.20000    1.83     1.83   0.09852  -19.0525
 0.25000    1.83     1.83   0.09823  -19.0526
 0.30000    1.83     1.83   0.09869  -19.0525
 0.35000    1.83     1.83   0.09820  -19.0525
 0.40000    1.83     1.83   0.09815  -19.0525
 0.45000    1.83     1.83   0.09814  -19.0522
 0.50000    1.83     1.83   0.09797  -19.0522
 0.55000    1.83     1.83   0.09781  -19.0520
 0.60000    1.83     1.83   0.09746  -19.0517
 0.65000    1.83     1.83   0.09757  -19.0516
 0.70000    1.83     1.83   0.09744  -19.0515
 0.75000    1.83     1.83   0.09737  -19.0514
 0.80000    1.83     1.83   0.09697  -19.0506
 0.85000    1.83     1.83   0.09683  -19.0497
 0.90000    1.83     1.83   0.09579  -19.0486
 0.95000    1.83     1.83   0.09481  -19.0482
 1.00000    1.83     1.83   0.09367  -19.0485
 1.05000    1.83     1.83   0.09282  -19.0488
 1.10000    1.83     1.83   0.09210  -19.0501
 1.15000    1.83     1.83   0.09127  -19.0509
 1.20000    1.83     1.83   0.09129  -19.0516
 1.25000    1.83     1.83   0.09114  -19.0530
 1.30000    1.83     1.83   0.09080  -19.0542
 1.35000    1.83     1.83   0.09095  -19.0550
 1.40000    1.83     1.83   0.09123  -19.0555
 1.45000    1.83     1.83   0.09167  -19.0557
 1.50000    1.83     1.83   0.09201  -19.0553
 1.55000    1.83     1.83   0.09218  -19.0558
 1.60000    1.83     1.83   0.09233  -19.0565
 1.65000    1.83     1.83   0.09224  -19.0560
 1.70000    1.83     1.83   0.09273  -19.0561
 1.75000    1.83     1.83   0.09299  -19.0567
 1.80000    1.83     1.83   0.09298  -19.0572
 1.85000    1.83     1.83   0.09282  -19.0570
 1.90000    1.83     1.83   0.09307  -19.0570
 1.95000    1.83     1.83   0.09319  -19.0570
 2.00000    1.83     1.83   0.09311  -19.0570
 2.05000    1.83     1.83   0.09302  -19.0568
 2.10000    1.83     1.83   0.09311  -19.0569
 2.15000    1.83     1.83   0.09311  -19.0570
 2.20000    1.83     1.83   0.09320  -19.0570
 2.25000    1.83     1.83   0.09315  -19.0572
 2.30000    1.83     1.83   0.09323  -19.0571
 2.35000    1.83     1.83   0.09319  -19.0570
 2.40000    1.83     1.83   0.09311  -19.0572
 2.45000    1.83     1.83   0.09324  -19.0572
 2.50000    1.83     1.83   0.09326  -19.0577
 2.55000    1.83     1.83   0.09324  -19.0574
 2.60000    1.83     1.83   0.09319  -19.0572
 2.65000    1.83     1.83   0.09325  -19.0572
 2.70000    1.83     1.83   0.09312  -19.0569
 2.75000    1.83     1.83   0.09315  -19.0567
 2.80000    1.83     1.83   0.09315  -19.0563
 2.85000    1.83     1.83   0.09309  -19.0563
 2.90000    1.83     1.83   0.09317  -19.0566
 2.95000    1.83     1.83   0.09321  -19.0567
 3.00000    1.83     1.83   0.09315  -19.0568
 3.05000    1.83     1.83   0.09329  -19.0568
 3.10000    1.83     1.83   0.09324  -19.0566
 3.15000    1.83     1.83   0.09333  -19.0567
 3.20000    1.83     1.83   0.09324  -19.0563
 3.25000    1.83     1.83   0.09300  -19.0565
 3.30000    1.83     1.83   0.09355  -19.0564
 3.35000    1.83     1.83   0.09330  -19.0565
 3.40000    1.83     1.83   0.09321  -19.0564
 3.45000    1.83     1.83   0.09321  -19.0564
 3.50000    1.83     1.83   0.09313  -19.0564
 3.55000    1.83     1.83   0.09315  -19.0562
 3.60000    1.83     1.83   0.09319  -19.0562
 3.65000    1.83     1.83   0.09330  -19.0564
 3.70000    1.83     1.83   0.09317  -19.0563
 3.75000    1.83     1.83   0.09287  -19.0563
 3.80000    1.83     1.83   0.09285  -19.0565
 3.85000    1.83     1.83   0.09303  -19.0564
 3.90000    1.83     1.83   0.09302  -19.0566
 3.95000    1.83     1.83   0.09287  -19.0567
 4.00000    1.83     1.83   0.09287  -19.0566
 4.00000    1.83     1.83   0.09285  -19.0565
 3.95000    1.83     1.83   0.09287  -19.0563
 3.90000    1.83     1.83   0.09306  -19.0564
 3.85000    1.83     1.83   0.09294  -19.0563
 3.80000    1.83     1.83   0.09289  -19.0563
 3.75000    1.83     1.83   0.09312  -19.0564
 3.70000    1.83     1.83   0.09308  -19.0563
 3.65000    1.83     1.83   0.09324  -19.0563
 3.60000    1.83     1.83   0.09292  -19.0564
 3.55000    1.83     1.83   0.09303  -19.0565
 3.50000    1.83     1.83   0.09319  -19.0567
 3.45000    1.83     1.83   0.09317  -19.0566
 3.40000    1.83     1.83   0.09300  -19.0567
 3.35000    1.83     1.83   0.09289  -19.0569
 3.30000    1.83     1.83   0.09326  -19.0570
 3.25000    1.83     1.83   0.09315  -19.0570
 3.20000    1.83     1.83   0.09303  -19.0571
 3.15000    1.83     1.83   0.09308  -19.0568
 3.10000    1.83     1.83   0.09308  -19.0567
 3.05000    1.83     1.83   0.09332  -19.0568
 3.00000    1.83     1.83   0.09295  -19.0570
 2.95000    1.83     1.83   0.09289  -19.0567
 2.90000    1.83     1.83   0.09330  -19.0566
 2.85000    1.83     1.83   0.09321  -19.0566
 2.80000    1.83     1.83   0.09309  -19.0567
 2.75000    1.83     1.83   0.09291  -19.0569
 2.70000    1.83     1.83   0.09315  -19.0568
 2.65000    1.83     1.83   0.09302  -19.0569
 2.60000    1.83     1.83   0.09309  -19.0571
 2.55000    1.83     1.83   0.09316  -19.0570
 2.50000    1.83     1.83   0.09342  -19.0566
 2.45000    1.83     1.83   0.09317  -19.0568
 2.40000    1.83     1.83   0.09325  -19.0569
 2.35000    1.83     1.83   0.09330  -19.0567
 2.30000    1.83     1.83   0.09299  -19.0569
 2.25000    1.83     1.83   0.09323  -19.0565
 2.20000    1.83     1.83   0.09294  -19.0564
 2.15000    1.83     1.83   0.09302  -19.0565
 2.10000    1.83     1.83   0.09309  -19.0566
 2.05000    1.83     1.83   0.09306  -19.0564
 2.00000    1.83     1.83   0.09256  -19.0564
 1.95000    1.83     1.83   0.09257  -19.0565
 1.90000    1.83     1.83   0.09271  -19.0564
 1.85000    1.83     1.83   0.09265  -19.0565
 1.80000    1.83     1.83   0.09265  -19.0563
 1.75000    1.83     1.83   0.09216  -19.0564
 1.70000    1.83     1.83   0.09227  -19.0561
 1.65000    1.83     1.83   0.09209  -19.0558
 1.60000    1.83     1.83   0.09213  -19.0559
 1.55000    1.83     1.83   0.09190  -19.0557
 1.50000    1.83     1.83   0.09143  -19.0556
 1.45000    1.83     1.83   0.09113  -19.0551
 1.40000    1.83     1.83   0.09112  -19.0551
 1.35000    1.83     1.83   0.09100  -19.0544
 1.30000    1.83     1.83   0.09088  -19.0536
 1.25000    1.83     1.83   0.09066  -19.0527
 1.20000    1.83     1.83   0.09078  -19.0516
 1.15000    1.83     1.83   0.09099  -19.0504
 1.10000    1.83     1.83   0.09133  -19.0489
 1.05000    1.83     1.83   0.09201  -19.0484
 1.00000    1.83     1.83   0.09307  -19.0481
 0.95000    1.83     1.83   0.09400  -19.0480
 0.90000    1.83     1.83   0.09543  -19.0481
 0.85000    1.83     1.83   0.09598  -19.0492
 0.80000    1.83     1.83   0.09667  -19.0501
 0.75000    1.83     1.83   0.09661  -19.0503
 0.70000    1.83     1.83   0.09689  -19.0507
 0.65000    1.83     1.83   0.09674  -19.0511
 0.60000    1.83     1.83   0.09693  -19.0513
 0.55000    1.83     1.83   0.09716  -19.0511
 0.50000    1.83     1.83   0.09744  -19.0516
 0.45000    1.83     1.83   0.09735  -19.0514
 0.40000    1.83     1.83   0.09735  -19.0518
 0.35000    1.83     1.83   0.09797  -19.0519
 0.30000    1.83     1.83   0.09793  -19.0522
 0.25000    1.83     1.83   0.09793  -19.0519
 0.20000    1.83     1.83   0.09792  -19.0517
 0.15000    1.83     1.83   0.09824  -19.0519
 0.10000    1.83     1.83   0.09826  -19.0519
 0.05000    1.83     1.83   0.09827  -19.0517
 -0.00000    1.83     1.83   0.09820  -19.0516
