 Field[T] Tsmpl[K] Tcntr[K] Signal   Mirror[MM]
 0.00000    1.82     1.82   0.04912  -19.2383
 0.05000    1.82     1.82   0.04917  -19.2382
 0.10000    1.82     1.82   0.04914  -19.2381
 0.15000    1.82     1.82   0.04914  -19.2382
 0.20000    1.82     1.82   0.04907  -19.2383
 0.25000    1.82     1.82   0.04900  -19.2380
 0.30000    1.82     1.82   0.04888  -19.2381
 0.35000    1.82     1.82   0.04888  -19.2378
 0.40000    1.82     1.82   0.04881  -19.2378
 0.45000    1.82     1.82   0.04876  -19.2377
 0.50000    1.82     1.82   0.04864  -19.2375
 0.55000    1.82     1.82   0.04859  -19.2376
 0.60000    1.82     1.82   0.04854  -19.2377
 0.65000    1.82     1.82   0.04854  -19.2374
 0.70000    1.82     1.82   0.04845  -19.2372
 0.75000    1.82     1.82   0.04833  -19.2369
 0.80000    1.82     1.82   0.04828  -19.2370
 0.85000    1.82     1.82   0.04828  -19.2369
 0.90000    1.82     1.82   0.04828  -19.2367
 0.95000    1.82     1.82   0.04826  -19.2362
 1.00000    1.82     1.82   0.04828  -19.2356
 1.05000    1.82     1.82   0.04821  -19.2351
 1.10000    1.82     1.82   0.04806  -19.2349
 1.15000    1.82     1.82   0.04778  -19.2346
 1.20000    1.82     1.82   0.04737  -19.2341
 1.25000    1.82     1.82   0.04706  -19.2342
 1.30000    1.82     1.82   0.04670  -19.2341
 1.35000    1.82     1.82   0.04634  -19.2343
 1.40000    1.82     1.82   0.04605  -19.2345
 1.45000    1.82     1.82   0.04586  -19.2349
 1.50000    1.82     1.82   0.04578  -19.2362
 1.55000    1.82     1.82   0.04576  -19.2368
 1.60000    1.82     1.82   0.04576  -19.2367
 1.65000    1.82     1.82   0.04581  -19.2369
 1.70000    1.82     1.82   0.04583  -19.2371
 1.75000    1.82     1.82   0.04588  -19.2371
 1.80000    1.82     1.82   0.04595  -19.2371
 1.85000    1.82     1.82   0.04586  -19.2373
 1.90000    1.82     1.82   0.04595  -19.2375
 1.95000    1.82     1.82   0.04595  -19.2376
 2.00000    1.82     1.82   0.04598  -19.2379
 2.05000    1.82     1.82   0.04598  -19.2379
 2.10000    1.82     1.82   0.04590  -19.2382
 2.15000    1.82     1.82   0.04595  -19.2378
 2.20000    1.82     1.82   0.04598  -19.2379
 2.25000    1.82     1.82   0.04588  -19.2380
 2.30000    1.82     1.82   0.04588  -19.2381
 2.35000    1.82     1.82   0.04590  -19.2380
 2.40000    1.82     1.82   0.04583  -19.2380
 2.45000    1.82     1.82   0.04583  -19.2378
 2.50000    1.82     1.82   0.04578  -19.2382
 2.55000    1.82     1.82   0.04581  -19.2378
 2.60000    1.82     1.82   0.04581  -19.2380
 2.65000    1.82     1.82   0.04578  -19.2381
 2.70000    1.82     1.82   0.04586  -19.2385
 2.75000    1.82     1.82   0.04583  -19.2384
 2.80000    1.82     1.82   0.04586  -19.2385
 2.85000    1.82     1.82   0.04583  -19.2385
 2.90000    1.82     1.82   0.04583  -19.2382
 2.95000    1.82     1.82   0.04578  -19.2385
 3.00000    1.82     1.82   0.04574  -19.2376
 3.05000    1.82     1.82   0.04581  -19.2383
 3.10000    1.82     1.82   0.04586  -19.2382
 3.15000    1.82     1.82   0.04578  -19.2386
 3.20000    1.82     1.82   0.04586  -19.2384
 3.25000    1.82     1.82   0.04581  -19.2389
 3.30000    1.82     1.82   0.04581  -19.2385
 3.35000    1.82     1.82   0.04578  -19.2386
 3.40000    1.82     1.82   0.04578  -19.2386
 3.45000    1.82     1.82   0.04578  -19.2386
 3.50000    1.82     1.82   0.04578  -19.2387
 3.55000    1.82     1.82   0.04578  -19.2386
 3.60000    1.82     1.82   0.04569  -19.2389
 3.65000    1.82     1.82   0.04571  -19.2377
 3.70000    1.82     1.82   0.04576  -19.2385
 3.75000    1.82     1.82   0.04571  -19.2384
 3.80000    1.82     1.82   0.04576  -19.2389
 3.85000    1.82     1.82   0.04569  -19.2384
 3.90000    1.82     1.82   0.04569  -19.2384
 3.95000    1.82     1.82   0.04566  -19.2385
 4.00000    1.82     1.82   0.04569  -19.2387
 4.00000    1.82     1.82   0.04564  -19.2387
 3.95000    1.82     1.82   0.04564  -19.2389
 3.90000    1.82     1.82   0.04562  -19.2387
 3.85000    1.82     1.82   0.04566  -19.2388
 3.80000    1.82     1.82   0.04562  -19.2385
 3.75000    1.82     1.82   0.04559  -19.2382
 3.70000    1.82     1.82   0.04559  -19.2387
 3.65000    1.82     1.82   0.04564  -19.2391
 3.60000    1.82     1.82   0.04559  -19.2391
 3.55000    1.82     1.82   0.04562  -19.2390
 3.50000    1.82     1.82   0.04557  -19.2391
 3.45000    1.82     1.82   0.04559  -19.2390
 3.40000    1.82     1.82   0.04559  -19.2391
 3.35000    1.82     1.82   0.04562  -19.2390
 3.30000    1.82     1.82   0.04559  -19.2390
 3.25000    1.82     1.82   0.04554  -19.2393
 3.20000    1.82     1.82   0.04559  -19.2388
 3.15000    1.82     1.82   0.04557  -19.2391
 3.10000    1.82     1.82   0.04559  -19.2382
 3.05000    1.82     1.82   0.04547  -19.2369
 3.00000    1.82     1.82   0.04566  -19.2387
 2.95000    1.82     1.82   0.04559  -19.2389
 2.90000    1.82     1.82   0.04554  -19.2388
 2.85000    1.82     1.82   0.04554  -19.2386
 2.80000    1.82     1.82   0.04557  -19.2383
 2.75000    1.82     1.82   0.04554  -19.2386
 2.70000    1.82     1.82   0.04557  -19.2385
 2.65000    1.82     1.82   0.04552  -19.2387
 2.60000    1.82     1.82   0.04554  -19.2389
 2.55000    1.82     1.82   0.04550  -19.2387
 2.50000    1.82     1.82   0.04552  -19.2383
 2.45000    1.82     1.82   0.04554  -19.2386
 2.40000    1.82     1.82   0.04552  -19.2385
 2.35000    1.82     1.82   0.04550  -19.2386
 2.30000    1.82     1.82   0.04552  -19.2386
 2.25000    1.82     1.82   0.04547  -19.2386
 2.20000    1.82     1.82   0.04557  -19.2386
 2.15000    1.82     1.82   0.04552  -19.2385
 2.10000    1.82     1.82   0.04554  -19.2383
 2.05000    1.82     1.82   0.04557  -19.2386
 2.00000    1.82     1.82   0.04554  -19.2382
 1.95000    1.82     1.82   0.04554  -19.2386
 1.90000    1.82     1.82   0.04554  -19.2384
 1.85000    1.82     1.82   0.04552  -19.2380
 1.80000    1.82     1.82   0.04547  -19.2378
 1.75000    1.82     1.82   0.04542  -19.2377
 1.70000    1.82     1.82   0.04542  -19.2377
 1.65000    1.82     1.82   0.04538  -19.2376
 1.60000    1.82     1.82   0.04535  -19.2370
 1.55000    1.82     1.82   0.04533  -19.2369
 1.50000    1.82     1.82   0.04535  -19.2365
 1.45000    1.82     1.82   0.04545  -19.2359
 1.40000    1.82     1.82   0.04557  -19.2360
 1.35000    1.82     1.82   0.04586  -19.2351
 1.30000    1.82     1.82   0.04622  -19.2347
 1.25000    1.82     1.82   0.04658  -19.2349
 1.20000    1.82     1.82   0.04694  -19.2346
 1.15000    1.82     1.82   0.04732  -19.2348
 1.10000    1.82     1.82   0.04770  -19.2352
 1.05000    1.82     1.82   0.04782  -19.2359
 1.00000    1.82     1.82   0.04787  -19.2367
 0.95000    1.82     1.82   0.04792  -19.2371
 0.90000    1.82     1.82   0.04799  -19.2373
 0.85000    1.82     1.82   0.04802  -19.2374
 0.80000    1.82     1.82   0.04802  -19.2374
 0.75000    1.82     1.82   0.04811  -19.2375
 0.70000    1.82     1.82   0.04814  -19.2372
 0.65000    1.82     1.82   0.04821  -19.2376
 0.60000    1.82     1.82   0.04821  -19.2378
 0.55000    1.82     1.82   0.04833  -19.2379
 0.50000    1.82     1.82   0.04842  -19.2381
 0.45000    1.82     1.82   0.04854  -19.2380
 0.40000    1.82     1.82   0.04862  -19.2383
 0.35000    1.82     1.82   0.04876  -19.2383
 0.30000    1.82     1.82   0.04878  -19.2380
 0.25000    1.82     1.82   0.04883  -19.2382
 0.20000    1.82     1.82   0.04893  -19.2380
 0.15000    1.82     1.82   0.04900  -19.2383
 0.10000    1.82     1.82   0.04910  -19.2386
 0.05000    1.82     1.82   0.04910  -19.2386
 -0.00000    1.82     1.82   0.04917  -19.2386
