 Field[T] Tsmpl[K] Tcntr[K] Signal   Mirror[MM]
 0.00000    1.82     1.82   0.03847  -19.3543
 0.05000    1.82     1.82   0.03859  -19.3545
 0.10000    1.82     1.82   0.03843  -19.3543
 0.15000    1.82     1.82   0.03850  -19.3545
 0.20000    1.82     1.82   0.03842  -19.3544
 0.25000    1.82     1.82   0.03846  -19.3542
 0.30000    1.82     1.82   0.03840  -19.3542
 0.35000    1.82     1.82   0.03840  -19.3542
 0.40000    1.82     1.82   0.03828  -19.3540
 0.45000    1.82     1.82   0.03840  -19.3539
 0.50000    1.82     1.82   0.03827  -19.3540
 0.55000    1.82     1.82   0.03831  -19.3538
 0.60000    1.82     1.82   0.03820  -19.3540
 0.65000    1.82     1.82   0.03825  -19.3537
 0.70000    1.82     1.82   0.03823  -19.3537
 0.75000    1.82     1.82   0.03812  -19.3535
 0.80000    1.82     1.82   0.03812  -19.3533
 0.85000    1.82     1.82   0.03816  -19.3534
 0.90000    1.82     1.82   0.03817  -19.3530
 0.95000    1.82     1.82   0.03810  -19.3532
 1.00000    1.82     1.82   0.03804  -19.3531
 1.05000    1.82     1.82   0.03797  -19.3527
 1.10000    1.82     1.82   0.03797  -19.3527
 1.15000    1.82     1.82   0.03798  -19.3525
 1.20000    1.82     1.82   0.03778  -19.3522
 1.25000    1.82     1.82   0.03770  -19.3524
 1.30000    1.82     1.82   0.03760  -19.3526
 1.35000    1.82     1.82   0.03747  -19.3529
 1.40000    1.82     1.82   0.03733  -19.3529
 1.45000    1.82     1.82   0.03733  -19.3532
 1.50000    1.82     1.82   0.03729  -19.3535
 1.55000    1.82     1.82   0.03731  -19.3539
 1.60000    1.82     1.82   0.03735  -19.3539
 1.65000    1.82     1.82   0.03737  -19.3542
 1.70000    1.82     1.82   0.03738  -19.3541
 1.75000    1.82     1.82   0.03744  -19.3542
 1.80000    1.82     1.82   0.03740  -19.3546
 1.85000    1.82     1.82   0.03743  -19.3545
 1.90000    1.82     1.82   0.03734  -19.3548
 1.95000    1.82     1.82   0.03748  -19.3544
 2.00000    1.82     1.82   0.03736  -19.3549
 2.05000    1.82     1.82   0.03743  -19.3549
 2.10000    1.82     1.82   0.03740  -19.3554
 2.15000    1.82     1.82   0.03746  -19.3552
 2.20000    1.82     1.82   0.03736  -19.3547
 2.25000    1.82     1.82   0.03737  -19.3550
 2.30000    1.82     1.82   0.03740  -19.3550
 2.35000    1.82     1.82   0.03740  -19.3551
 2.40000    1.82     1.82   0.03738  -19.3550
 2.45000    1.82     1.82   0.03746  -19.3550
 2.50000    1.82     1.82   0.03744  -19.3551
 2.55000    1.82     1.82   0.03737  -19.3553
 2.60000    1.82     1.82   0.03734  -19.3550
 2.65000    1.82     1.82   0.03740  -19.3550
 2.70000    1.82     1.82   0.03737  -19.3553
 2.75000    1.82     1.82   0.03739  -19.3552
 2.80000    1.82     1.82   0.03741  -19.3550
 2.85000    1.82     1.82   0.03738  -19.3549
 2.90000    1.82     1.82   0.03738  -19.3549
 2.95000    1.82     1.82   0.03735  -19.3549
 3.00000    1.82     1.82   0.03739  -19.3551
 3.05000    1.82     1.82   0.03740  -19.3552
 3.10000    1.82     1.82   0.03734  -19.3558
 3.15000    1.82     1.82   0.03738  -19.3555
 3.20000    1.82     1.82   0.03736  -19.3556
 3.25000    1.82     1.82   0.03741  -19.3544
 3.30000    1.82     1.82   0.03737  -19.3554
 3.35000    1.82     1.82   0.03739  -19.3556
 3.40000    1.82     1.82   0.03738  -19.3555
 3.45000    1.82     1.82   0.03739  -19.3556
 3.50000    1.82     1.82   0.03737  -19.3551
 3.55000    1.82     1.82   0.03736  -19.3550
 3.60000    1.82     1.82   0.03739  -19.3546
 3.65000    1.82     1.82   0.03738  -19.3543
 3.70000    1.82     1.82   0.03737  -19.3543
 3.75000    1.82     1.82   0.03737  -19.3548
 3.80000    1.82     1.82   0.03740  -19.3549
 3.85000    1.82     1.82   0.03739  -19.3551
 3.90000    1.82     1.82   0.03738  -19.3550
 3.95000    1.82     1.82   0.03739  -19.3560
 4.00000    1.82     1.82   0.03738  -19.3563
 4.00000    1.82     1.82   0.03739  -19.3563
 3.95000    1.82     1.82   0.03739  -19.3561
 3.90000    1.82     1.82   0.03740  -19.3557
 3.85000    1.82     1.82   0.03742  -19.3556
 3.80000    1.82     1.82   0.03745  -19.3554
 3.75000    1.82     1.82   0.03743  -19.3554
 3.70000    1.82     1.82   0.03746  -19.3556
 3.65000    1.82     1.82   0.03745  -19.3555
 3.60000    1.82     1.82   0.03742  -19.3556
 3.55000    1.82     1.82   0.03747  -19.3555
 3.50000    1.82     1.82   0.03745  -19.3558
 3.45000    1.82     1.82   0.03747  -19.3555
 3.40000    1.82     1.82   0.03749  -19.3557
 3.35000    1.82     1.82   0.03752  -19.3555
 3.30000    1.82     1.82   0.03750  -19.3558
 3.25000    1.82     1.82   0.03750  -19.3557
 3.20000    1.82     1.82   0.03750  -19.3556
 3.15000    1.82     1.82   0.03753  -19.3558
 3.10000    1.82     1.82   0.03753  -19.3557
 3.05000    1.82     1.82   0.03753  -19.3557
 3.00000    1.82     1.82   0.03755  -19.3560
 2.95000    1.82     1.82   0.03756  -19.3558
 2.90000    1.82     1.82   0.03756  -19.3559
 2.85000    1.82     1.82   0.03756  -19.3556
 2.80000    1.82     1.82   0.03755  -19.3555
 2.75000    1.82     1.82   0.03755  -19.3553
 2.70000    1.82     1.82   0.03756  -19.3546
 2.65000    1.82     1.82   0.03756  -19.3547
 2.60000    1.82     1.82   0.03758  -19.3552
 2.55000    1.82     1.82   0.03760  -19.3553
 2.50000    1.82     1.82   0.03758  -19.3549
 2.45000    1.82     1.82   0.03762  -19.3550
 2.40000    1.82     1.82   0.03760  -19.3555
 2.35000    1.82     1.82   0.03761  -19.3553
 2.30000    1.82     1.82   0.03761  -19.3555
 2.25000    1.82     1.82   0.03760  -19.3561
 2.20000    1.82     1.82   0.03761  -19.3564
 2.15000    1.82     1.82   0.03763  -19.3562
 2.10000    1.82     1.82   0.03765  -19.3556
 2.05000    1.82     1.82   0.03762  -19.3555
 2.00000    1.82     1.82   0.03764  -19.3553
 1.95000    1.82     1.82   0.03765  -19.3551
 1.90000    1.82     1.82   0.03764  -19.3548
 1.85000    1.82     1.82   0.03759  -19.3553
 1.80000    1.82     1.82   0.03761  -19.3554
 1.75000    1.82     1.82   0.03759  -19.3552
 1.70000    1.82     1.82   0.03757  -19.3551
 1.65000    1.82     1.82   0.03754  -19.3557
 1.60000    1.82     1.82   0.03749  -19.3560
 1.55000    1.82     1.82   0.03751  -19.3554
 1.50000    1.82     1.82   0.03752  -19.3547
 1.45000    1.82     1.82   0.03751  -19.3543
 1.40000    1.82     1.82   0.03758  -19.3540
 1.35000    1.82     1.82   0.03767  -19.3542
 1.30000    1.82     1.82   0.03774  -19.3534
 1.25000    1.82     1.82   0.03787  -19.3536
 1.20000    1.82     1.82   0.03794  -19.3529
 1.15000    1.82     1.82   0.03803  -19.3534
 1.10000    1.82     1.82   0.03813  -19.3535
 1.05000    1.82     1.82   0.03816  -19.3538
 1.00000    1.82     1.82   0.03817  -19.3542
 0.95000    1.82     1.82   0.03820  -19.3541
 0.90000    1.82     1.82   0.03822  -19.3545
 0.85000    1.82     1.82   0.03822  -19.3546
 0.80000    1.82     1.82   0.03824  -19.3546
 0.75000    1.82     1.82   0.03827  -19.3543
 0.70000    1.82     1.82   0.03827  -19.3543
 0.65000    1.82     1.82   0.03830  -19.3546
 0.60000    1.82     1.82   0.03834  -19.3547
 0.55000    1.82     1.82   0.03836  -19.3548
 0.50000    1.82     1.82   0.03839  -19.3546
 0.45000    1.82     1.82   0.03841  -19.3549
 0.40000    1.82     1.82   0.03842  -19.3546
 0.35000    1.82     1.82   0.03845  -19.3542
 0.30000    1.82     1.82   0.03848  -19.3540
 0.25000    1.82     1.82   0.03849  -19.3540
 0.20000    1.82     1.82   0.03850  -19.3545
 0.15000    1.82     1.82   0.03852  -19.3546
 0.10000    1.82     1.82   0.03851  -19.3545
 0.05000    1.82     1.82   0.03855  -19.3547
 -0.00000    1.82     1.82   0.03855  -19.3541
