 Field[T] Tsmpl[K] Tcntr[K] Signal
 0.00000    1.84     1.86   6.44720
 0.05000    1.84     1.86   6.44530
 0.10000    1.84     1.86   6.44330
 0.15000    1.84     1.86   6.44810
 0.20000    1.84     1.86   6.44750
 0.25000    1.84     1.86   6.44850
 0.30000    1.84     1.86   6.44430
 0.35000    1.84     1.86   6.44260
 0.40000    1.84     1.86   6.44250
 0.45000    1.84     1.86   6.44520
 0.50000    1.84     1.86   6.44400
 0.55000    1.84     1.86   6.44510
 0.60000    1.84     1.86   6.44390
 0.65000    1.84     1.86   6.44360
 0.70000    1.84     1.86   6.44470
 0.75000    1.84     1.86   6.44340
 0.80000    1.84     1.86   6.44140
 0.85000    1.84     1.86   6.44140
 0.90000    1.84     1.86   6.43610
 0.95000    1.84     1.86   6.43510
 1.00000    1.84     1.86   6.43820
 1.05000    1.84     1.86   6.43930
 1.10000    1.84     1.87   6.43390
 1.15000    1.84     1.87   6.43580
 1.20000    1.84     1.87   6.43280
 1.25000    1.84     1.87   6.43490
 1.30000    1.84     1.87   6.43220
 1.35000    1.84     1.87   6.43100
 1.40000    1.84     1.87   6.42920
 1.45000    1.84     1.87   6.42790
 1.50000    1.84     1.87   6.42870
 1.55000    1.84     1.87   6.42810
 1.60000    1.85     1.87   6.42700
 1.65000    1.85     1.87   6.42540
 1.70000    1.85     1.87   6.42140
 1.75000    1.85     1.87   6.41790
 1.80000    1.85     1.87   6.41410
 1.85000    1.85     1.87   6.40790
 1.90000    1.85     1.87   6.39940
 1.95000    1.85     1.87   6.39750
 2.00000    1.85     1.87   6.38750
 2.05000    1.85     1.87   6.37600
 2.10000    1.85     1.87   6.36390
 2.15000    1.85     1.87   6.36170
 2.20000    1.85     1.87   6.36090
 2.25000    1.85     1.88   6.36060
 2.30000    1.86     1.88   6.36160
 2.35000    1.86     1.88   6.36420
 2.40000    1.86     1.88   6.36560
 2.45000    1.86     1.88   6.36960
 2.50000    1.86     1.88   6.37240
 2.55000    1.86     1.88   6.38230
 2.60000    1.86     1.88   6.38420
 2.65000    1.86     1.88   6.37340
 2.70000    1.86     1.88   6.36270
 2.75000    1.86     1.88   6.35900
 2.80000    1.86     1.88   6.35070
 2.85000    1.86     1.88   6.34800
 2.90000    1.86     1.88   6.34590
 2.95000    1.86     1.88   6.34060
 3.00000    1.87     1.88   6.33540
 3.05000    1.87     1.88   6.33230
 3.10000    1.87     1.88   6.32630
 3.15000    1.87     1.89   6.32410
 3.20000    1.87     1.89   6.31570
 3.25000    1.87     1.89   6.31290
 3.30000    1.87     1.89   6.30950
 3.35000    1.87     1.89   6.30780
 3.40000    1.87     1.89   6.30330
 3.45000    1.87     1.89   6.29630
 3.50000    1.87     1.89   6.29290
 3.55000    1.87     1.89   6.29400
 3.60000    1.87     1.89   6.29170
 3.65000    1.87     1.89   6.29680
 3.70000    1.87     1.89   6.30450
 3.75000    1.87     1.89   6.30650
 3.80000    1.87     1.89   6.30870
 3.85000    1.87     1.89   6.31860
 3.90000    1.87     1.89   6.32460
 3.95000    1.88     1.89   6.32830
 4.00000    1.88     1.89   6.33450
 4.05000    1.88     1.89   6.34180
 4.10000    1.88     1.89   6.34200
 4.15000    1.88     1.89   6.35020
 4.20000    1.88     1.90   6.34960
 4.25000    1.88     1.90   6.35110
 4.30000    1.88     1.90   6.35880
 4.35000    1.88     1.90   6.35790
 4.40000    1.88     1.90   6.35920
 4.45000    1.88     1.90   6.36350
 4.50000    1.88     1.90   6.36570
 4.55000    1.88     1.90   6.36550
 4.60000    1.88     1.90   6.37110
 4.65000    1.88     1.90   6.37170
 4.70000    1.88     1.90   6.36930
 4.75000    1.88     1.90   6.37150
 4.80000    1.88     1.90   6.37230
 4.85000    1.88     1.90   6.37190
 4.90000    1.88     1.90   6.37350
 4.95000    1.88     1.90   6.37300
 5.00000    1.88     1.90   6.37090
 5.00000    1.88     1.90   6.37430
 4.95000    1.88     1.90   6.37680
 4.90000    1.88     1.90   6.37360
 4.85000    1.88     1.90   6.37160
 4.80000    1.88     1.90   6.37700
 4.75000    1.88     1.90   6.37450
 4.70000    1.88     1.90   6.37280
 4.65000    1.88     1.90   6.36990
 4.60000    1.88     1.90   6.36770
 4.55000    1.88     1.90   6.36450
 4.50000    1.88     1.90   6.36850
 4.45000    1.88     1.90   6.36740
 4.40000    1.88     1.90   6.36440
 4.35000    1.88     1.89   6.37040
 4.30000    1.88     1.89   6.36770
 4.25000    1.88     1.89   6.36340
 4.20000    1.87     1.89   6.35480
 4.15000    1.87     1.89   6.36460
 4.10000    1.87     1.89   6.36750
 4.05000    1.87     1.89   6.37640
 4.00000    1.87     1.89   6.36240
 3.95000    1.87     1.89   6.34800
 3.90000    1.87     1.89   6.33450
 3.85000    1.87     1.89   6.33240
 3.80000    1.87     1.89   6.32200
 3.75000    1.87     1.89   6.31670
 3.70000    1.87     1.89   6.30830
 3.65000    1.87     1.88   6.29880
 3.60000    1.87     1.88   6.29790
 3.55000    1.87     1.88   6.29610
 3.50000    1.87     1.88   6.29460
 3.45000    1.87     1.88   6.29150
 3.40000    1.87     1.88   6.29130
 3.35000    1.87     1.88   6.29730
 3.30000    1.86     1.88   6.29410
 3.25000    1.86     1.88   6.30420
 3.20000    1.86     1.88   6.30870
 3.15000    1.86     1.88   6.31830
 3.10000    1.86     1.88   6.31510
 3.05000    1.86     1.88   6.32060
 3.00000    1.86     1.88   6.31960
 2.95000    1.86     1.88   6.32780
 2.90000    1.86     1.88   6.33300
 2.85000    1.86     1.88   6.33140
 2.80000    1.86     1.87   6.33200
 2.75000    1.86     1.87   6.33150
 2.70000    1.86     1.87   6.32940
 2.65000    1.86     1.87   6.33500
 2.60000    1.86     1.87   6.33470
 2.55000    1.86     1.87   6.33910
 2.50000    1.86     1.87   6.33950
 2.45000    1.85     1.87   6.33960
 2.40000    1.85     1.87   6.33990
 2.35000    1.85     1.87   6.33740
 2.30000    1.85     1.87   6.33470
 2.25000    1.85     1.87   6.33740
 2.20000    1.85     1.87   6.33970
 2.15000    1.85     1.87   6.33740
 2.10000    1.85     1.87   6.34980
 2.05000    1.85     1.87   6.35260
 2.00000    1.85     1.87   6.36600
 1.95000    1.85     1.86   6.37560
 1.90000    1.85     1.86   6.39030
 1.85000    1.85     1.86   6.39510
 1.80000    1.85     1.86   6.39990
 1.75000    1.84     1.86   6.40380
 1.70000    1.84     1.86   6.40840
 1.65000    1.84     1.86   6.40950
 1.60000    1.84     1.86   6.41530
 1.55000    1.84     1.86   6.41560
 1.50000    1.84     1.86   6.41780
 1.45000    1.84     1.86   6.42040
 1.40000    1.84     1.86   6.42400
 1.35000    1.84     1.86   6.42760
 1.30000    1.84     1.86   6.42830
 1.25000    1.84     1.86   6.43090
 1.20000    1.84     1.86   6.42800
 1.15000    1.84     1.86   6.43310
 1.10000    1.84     1.86   6.43410
 1.05000    1.84     1.86   6.43560
 1.00000    1.84     1.86   6.44530
 0.95000    1.84     1.86   6.45980
 0.90000    1.84     1.86   6.47250
 0.85000    1.84     1.86   6.46440
 0.80000    1.84     1.86   6.45920
 0.75000    1.84     1.86   6.46030
 0.70000    1.84     1.86   6.46020
 0.65000    1.84     1.86   6.46240
 0.60000    1.84     1.86   6.47390
 0.55000    1.84     1.86   6.49190
 0.50000    1.84     1.86   6.50080
 0.45000    1.84     1.86   6.50430
 0.40000    1.84     1.86   6.48440
 0.35000    1.83     1.86   6.46280
 0.30000    1.83     1.86   6.44940
 0.25000    1.83     1.86   6.45470
 0.20000    1.83     1.86   6.45150
 0.15000    1.83     1.86   6.45060
 0.10000    1.83     1.86   6.45110
 0.05000    1.83     1.86   6.44940
-0.00000    1.83     1.86   6.45230
