 Field[T] Tsmpl[K] Tcntr[K] Signal   Mirror[MM]
 0.00000    1.83     1.83   0.73070  -10.8030
 0.05000    1.83     1.83   0.73068  -10.8032
 0.10000    1.83     1.83   0.72926  -10.8035
 0.15000    1.83     1.83   0.72782  -10.8038
 0.20000    1.83     1.83   0.72641  -10.8040
 0.25000    1.83     1.83   0.72462  -10.8045
 0.30000    1.83     1.83   0.72132  -10.8051
 0.35000    1.83     1.83   0.71691  -10.8064
 0.40000    1.83     1.83   0.71133  -10.8094
 0.45000    1.83     1.83   0.71067  -10.8137
 0.50000    1.83     1.83   0.71241  -10.8172
 0.55000    1.83     1.83   0.71473  -10.8203
 0.60000    1.83     1.83   0.71737  -10.8227
 0.65000    1.83     1.83   0.72071  -10.8249
 0.70000    1.83     1.83   0.72439  -10.8266
 0.75000    1.83     1.83   0.72732  -10.8277
 0.80000    1.83     1.83   0.73133  -10.8288
 0.85000    1.83     1.83   0.73505  -10.8294
 0.90000    1.83     1.83   0.73813  -10.8293
 0.95000    1.83     1.83   0.74108  -10.8295
 1.00000    1.83     1.83   0.74340  -10.8290
 1.05000    1.83     1.83   0.74526  -10.8291
 1.10000    1.83     1.83   0.74662  -10.8290
 1.15000    1.83     1.83   0.74738  -10.8285
 1.20000    1.83     1.83   0.74844  -10.8285
 1.25000    1.83     1.83   0.74920  -10.8282
 1.30000    1.83     1.83   0.75015  -10.8282
 1.35000    1.83     1.83   0.75083  -10.8283
 1.40000    1.83     1.83   0.75238  -10.8287
 1.45000    1.83     1.83   0.75291  -10.8283
 1.50000    1.83     1.83   0.75325  -10.8280
 1.55000    1.83     1.83   0.75355  -10.8281
 1.60000    1.83     1.83   0.75456  -10.8284
 1.65000    1.83     1.83   0.75535  -10.8284
 1.70000    1.83     1.83   0.75557  -10.8282
 1.75000    1.83     1.83   0.75598  -10.8280
 1.80000    1.83     1.83   0.75581  -10.8282
 1.85000    1.83     1.83   0.75613  -10.8279
 1.90000    1.83     1.83   0.75611  -10.8279
 1.95000    1.83     1.83   0.75685  -10.8281
 2.00000    1.83     1.83   0.75707  -10.8281
 2.05000    1.83     1.83   0.75796  -10.8280
 2.10000    1.83     1.83   0.75746  -10.8281
 2.15000    1.83     1.83   0.75820  -10.8281
 2.20000    1.83     1.83   0.75796  -10.8282
 2.25000    1.83     1.83   0.75830  -10.8281
 2.30000    1.83     1.83   0.75856  -10.8286
 2.35000    1.83     1.83   0.75850  -10.8281
 2.40000    1.83     1.83   0.75898  -10.8282
 2.45000    1.83     1.83   0.75869  -10.8281
 2.50000    1.83     1.83   0.75920  -10.8281
 2.55000    1.83     1.83   0.75956  -10.8281
 2.60000    1.83     1.83   0.75917  -10.8281
 2.65000    1.83     1.83   0.75924  -10.8285
 2.70000    1.83     1.83   0.75946  -10.8280
 2.75000    1.83     1.83   0.75939  -10.8282
 2.80000    1.83     1.83   0.75894  -10.8279
 2.85000    1.83     1.83   0.75950  -10.8284
 2.90000    1.83     1.83   0.75963  -10.8280
 2.95000    1.83     1.83   0.75949  -10.8281
 3.00000    1.83     1.83   0.75949  -10.8283
 3.05000    1.83     1.83   0.75968  -10.8283
 3.10000    1.83     1.83   0.76015  -10.8283
 3.15000    1.83     1.83   0.76023  -10.8283
 3.20000    1.83     1.83   0.76053  -10.8284
 3.25000    1.83     1.83   0.76071  -10.8283
 3.30000    1.83     1.83   0.75966  -10.8283
 3.35000    1.83     1.83   0.76012  -10.8281
 3.40000    1.83     1.83   0.76045  -10.8284
 3.45000    1.83     1.83   0.76011  -10.8285
 3.50000    1.83     1.83   0.75976  -10.8283
 3.55000    1.83     1.83   0.76007  -10.8281
 3.60000    1.83     1.83   0.76010  -10.8281
 3.65000    1.83     1.83   0.76019  -10.8279
 3.70000    1.83     1.83   0.75998  -10.8282
 3.75000    1.83     1.83   0.75967  -10.8279
 3.80000    1.83     1.83   0.75936  -10.8278
 3.85000    1.83     1.83   0.75953  -10.8279
 3.90000    1.83     1.83   0.75942  -10.8281
 3.95000    1.83     1.83   0.75897  -10.8284
 4.00000    1.83     1.83   0.75882  -10.8283
 4.00000    1.83     1.83   0.75926  -10.8282
 3.95000    1.83     1.83   0.75917  -10.8279
 3.90000    1.83     1.83   0.75887  -10.8278
 3.85000    1.83     1.83   0.75845  -10.8280
 3.80000    1.83     1.83   0.75864  -10.8277
 3.75000    1.83     1.83   0.75843  -10.8276
 3.70000    1.83     1.83   0.75806  -10.8276
 3.65000    1.83     1.83   0.75790  -10.8277
 3.60000    1.83     1.83   0.75802  -10.8278
 3.55000    1.83     1.83   0.75839  -10.8275
 3.50000    1.83     1.83   0.75846  -10.8278
 3.45000    1.83     1.83   0.75845  -10.8275
 3.40000    1.83     1.83   0.75813  -10.8274
 3.35000    1.83     1.83   0.75770  -10.8272
 3.30000    1.83     1.83   0.75756  -10.8274
 3.25000    1.83     1.83   0.75682  -10.8275
 3.20000    1.83     1.83   0.75696  -10.8273
 3.15000    1.83     1.83   0.75726  -10.8273
 3.10000    1.83     1.83   0.75677  -10.8274
 3.05000    1.83     1.83   0.75665  -10.8273
 3.00000    1.83     1.83   0.75650  -10.8272
 2.95000    1.83     1.83   0.75568  -10.8270
 2.90000    1.83     1.83   0.75624  -10.8269
 2.85000    1.83     1.83   0.75538  -10.8270
 2.80000    1.83     1.83   0.75557  -10.8268
 2.75000    1.83     1.83   0.75459  -10.8265
 2.70000    1.83     1.83   0.75488  -10.8266
 2.65000    1.83     1.83   0.75516  -10.8269
 2.60000    1.83     1.83   0.75508  -10.8268
 2.55000    1.83     1.83   0.75520  -10.8266
 2.50000    1.83     1.83   0.75425  -10.8264
 2.45000    1.83     1.83   0.75356  -10.8268
 2.40000    1.83     1.83   0.75327  -10.8265
 2.35000    1.83     1.83   0.75339  -10.8264
 2.30000    1.83     1.83   0.75312  -10.8265
 2.25000    1.83     1.83   0.75308  -10.8261
 2.20000    1.83     1.83   0.75271  -10.8264
 2.15000    1.83     1.83   0.75217  -10.8265
 2.10000    1.83     1.83   0.75204  -10.8263
 2.05000    1.83     1.83   0.75144  -10.8263
 2.00000    1.83     1.83   0.75052  -10.8266
 1.95000    1.83     1.83   0.75041  -10.8261
 1.90000    1.83     1.83   0.74979  -10.8263
 1.85000    1.83     1.83   0.74948  -10.8265
 1.80000    1.83     1.83   0.74935  -10.8264
 1.75000    1.83     1.83   0.74819  -10.8265
 1.70000    1.83     1.83   0.74753  -10.8263
 1.65000    1.83     1.83   0.74649  -10.8262
 1.60000    1.83     1.83   0.74601  -10.8265
 1.55000    1.83     1.83   0.74547  -10.8266
 1.50000    1.83     1.83   0.74467  -10.8261
 1.45000    1.83     1.83   0.74415  -10.8264
 1.40000    1.83     1.83   0.74299  -10.8264
 1.35000    1.83     1.83   0.74188  -10.8264
 1.30000    1.83     1.83   0.74062  -10.8264
 1.25000    1.83     1.83   0.74035  -10.8264
 1.20000    1.83     1.83   0.73857  -10.8265
 1.15000    1.83     1.83   0.73779  -10.8266
 1.10000    1.83     1.83   0.73579  -10.8268
 1.05000    1.83     1.83   0.73432  -10.8268
 1.00000    1.83     1.83   0.73225  -10.8270
 0.95000    1.83     1.83   0.73029  -10.8275
 0.90000    1.83     1.83   0.72727  -10.8274
 0.85000    1.83     1.83   0.72388  -10.8272
 0.80000    1.83     1.83   0.72037  -10.8269
 0.75000    1.83     1.83   0.71656  -10.8261
 0.70000    1.83     1.83   0.71305  -10.8244
 0.65000    1.83     1.83   0.70957  -10.8231
 0.60000    1.83     1.83   0.70586  -10.8209
 0.55000    1.83     1.83   0.70270  -10.8187
 0.50000    1.83     1.83   0.70026  -10.8157
 0.45000    1.83     1.83   0.69820  -10.8125
 0.40000    1.83     1.83   0.69755  -10.8083
 0.35000    1.83     1.83   0.70248  -10.8046
 0.30000    1.83     1.83   0.70646  -10.8030
 0.25000    1.83     1.83   0.70989  -10.8023
 0.20000    1.83     1.83   0.71180  -10.8018
 0.15000    1.83     1.83   0.71313  -10.8015
 0.10000    1.83     1.83   0.71440  -10.8014
 0.05000    1.83     1.83   0.71460  -10.8012
 -0.00000    1.83     1.83   0.71520  -10.8010
