 Field[T] Tsmpl[K] Tcntr[K] Signal   Mirror[MM]
 0.00000    1.78     1.78   0.41989  -10.9694
 0.05000    1.78     1.78   0.42015  -10.9692
 0.10000    1.78     1.78   0.42024  -10.9692
 0.15000    1.78     1.78   0.42055  -10.9698
 0.20000    1.78     1.78   0.42077  -10.9699
 0.25000    1.78     1.78   0.42059  -10.9702
 0.30000    1.78     1.78   0.42080  -10.9700
 0.35000    1.78     1.78   0.42097  -10.9704
 0.40000    1.78     1.78   0.42105  -10.9705
 0.45000    1.78     1.78   0.42108  -10.9703
 0.50000    1.78     1.78   0.42120  -10.9701
 0.55000    1.78     1.78   0.42122  -10.9703
 0.60000    1.78     1.78   0.42121  -10.9706
 0.65000    1.78     1.78   0.42129  -10.9704
 0.70000    1.78     1.78   0.42133  -10.9703
 0.75000    1.78     1.78   0.42129  -10.9703
 0.80000    1.78     1.78   0.42124  -10.9708
 0.85000    1.78     1.78   0.42106  -10.9703
 0.90000    1.78     1.78   0.42095  -10.9696
 0.95000    1.78     1.78   0.42091  -10.9697
 1.00000    1.78     1.78   0.42021  -10.9692
 1.05000    1.78     1.78   0.41975  -10.9694
 1.10000    1.78     1.78   0.41874  -10.9694
 1.15000    1.78     1.78   0.41711  -10.9695
 1.20000    1.78     1.78   0.41606  -10.9693
 1.25000    1.78     1.78   0.41430  -10.9684
 1.30000    1.78     1.78   0.41466  -10.9698
 1.35000    1.78     1.78   0.41454  -10.9705
 1.40000    1.78     1.78   0.41408  -10.9708
 1.45000    1.78     1.78   0.41366  -10.9712
 1.50000    1.78     1.78   0.41362  -10.9721
 1.55000    1.78     1.78   0.41334  -10.9720
 1.60000    1.78     1.78   0.41322  -10.9714
 1.65000    1.78     1.78   0.41310  -10.9719
 1.70000    1.78     1.78   0.41302  -10.9720
 1.75000    1.78     1.78   0.41289  -10.9720
 1.80000    1.78     1.78   0.41286  -10.9725
 1.85000    1.78     1.78   0.41315  -10.9733
 1.90000    1.78     1.78   0.41314  -10.9736
 1.95000    1.78     1.78   0.41316  -10.9738
 2.00000    1.78     1.78   0.41313  -10.9735
 2.05000    1.78     1.78   0.41298  -10.9737
 2.10000    1.78     1.78   0.41336  -10.9738
 2.15000    1.78     1.78   0.41288  -10.9737
 2.20000    1.78     1.78   0.41316  -10.9737
 2.25000    1.78     1.78   0.41334  -10.9737
 2.30000    1.78     1.78   0.41316  -10.9740
 2.35000    1.78     1.78   0.41332  -10.9740
 2.40000    1.78     1.78   0.41346  -10.9741
 2.45000    1.78     1.78   0.41341  -10.9742
 2.50000    1.78     1.78   0.41359  -10.9743
 2.55000    1.78     1.78   0.41354  -10.9746
 2.60000    1.78     1.78   0.41355  -10.9748
 2.65000    1.78     1.78   0.41374  -10.9744
 2.70000    1.78     1.78   0.41277  -10.9739
 2.75000    1.78     1.78   0.41258  -10.9741
 2.80000    1.78     1.78   0.41335  -10.9747
 2.85000    1.78     1.78   0.41356  -10.9751
 2.90000    1.78     1.78   0.41313  -10.9750
 2.95000    1.78     1.78   0.41288  -10.9743
 3.00000    1.78     1.78   0.41305  -10.9738
 3.05000    1.78     1.78   0.41314  -10.9745
 3.10000    1.78     1.78   0.41290  -10.9743
 3.15000    1.78     1.78   0.41313  -10.9748
 3.20000    1.78     1.78   0.41226  -10.9742
 3.25000    1.78     1.78   0.41269  -10.9750
 3.30000    1.78     1.78   0.41249  -10.9751
 3.35000    1.78     1.78   0.41261  -10.9750
 3.40000    1.78     1.78   0.41250  -10.9750
 3.45000    1.78     1.78   0.41234  -10.9747
 3.50000    1.78     1.78   0.41217  -10.9747
 3.55000    1.78     1.78   0.41192  -10.9749
 3.60000    1.78     1.78   0.41191  -10.9750
 3.65000    1.78     1.78   0.41168  -10.9748
 3.70000    1.78     1.78   0.41163  -10.9749
 3.75000    1.78     1.78   0.41180  -10.9746
 3.80000    1.78     1.78   0.41178  -10.9749
 3.85000    1.78     1.78   0.41136  -10.9748
 3.90000    1.78     1.78   0.41175  -10.9750
 3.95000    1.78     1.78   0.41160  -10.9748
 4.00000    1.78     1.78   0.41125  -10.9746
 4.00000    1.78     1.78   0.41110  -10.9744
 3.95000    1.78     1.78   0.41084  -10.9744
 3.90000    1.78     1.78   0.41100  -10.9745
 3.85000    1.78     1.78   0.41083  -10.9745
 3.80000    1.78     1.78   0.41098  -10.9745
 3.75000    1.78     1.78   0.41093  -10.9744
 3.70000    1.78     1.78   0.41012  -10.9737
 3.65000    1.78     1.78   0.41097  -10.9739
 3.60000    1.78     1.78   0.41114  -10.9737
 3.55000    1.78     1.78   0.41154  -10.9742
 3.50000    1.78     1.78   0.41159  -10.9741
 3.45000    1.78     1.78   0.41138  -10.9736
 3.40000    1.78     1.78   0.41167  -10.9735
 3.35000    1.78     1.78   0.41180  -10.9736
 3.30000    1.78     1.78   0.41171  -10.9739
 3.25000    1.78     1.78   0.41222  -10.9739
 3.20000    1.78     1.78   0.41184  -10.9739
 3.15000    1.78     1.78   0.41190  -10.9741
 3.10000    1.78     1.78   0.41170  -10.9740
 3.05000    1.78     1.78   0.41194  -10.9738
 3.00000    1.78     1.78   0.41221  -10.9740
 2.95000    1.78     1.78   0.41190  -10.9737
 2.90000    1.78     1.78   0.41187  -10.9736
 2.85000    1.78     1.78   0.41116  -10.9730
 2.80000    1.78     1.78   0.41219  -10.9736
 2.75000    1.78     1.78   0.41206  -10.9736
 2.70000    1.78     1.78   0.41164  -10.9734
 2.65000    1.78     1.78   0.41186  -10.9735
 2.60000    1.78     1.78   0.41175  -10.9729
 2.55000    1.78     1.78   0.41174  -10.9732
 2.50000    1.78     1.78   0.41197  -10.9729
 2.45000    1.78     1.78   0.41214  -10.9729
 2.40000    1.78     1.78   0.41233  -10.9732
 2.35000    1.78     1.78   0.41213  -10.9727
 2.30000    1.78     1.78   0.41215  -10.9722
 2.25000    1.78     1.78   0.41202  -10.9726
 2.20000    1.78     1.78   0.41183  -10.9723
 2.15000    1.78     1.78   0.41197  -10.9724
 2.10000    1.78     1.78   0.41227  -10.9726
 2.05000    1.78     1.78   0.41221  -10.9723
 2.00000    1.78     1.78   0.41233  -10.9724
 1.95000    1.78     1.78   0.41152  -10.9713
 1.90000    1.78     1.78   0.41243  -10.9717
 1.85000    1.78     1.78   0.41226  -10.9720
 1.80000    1.78     1.78   0.41233  -10.9721
 1.75000    1.78     1.78   0.41243  -10.9714
 1.70000    1.78     1.78   0.41231  -10.9715
 1.65000    1.78     1.78   0.41250  -10.9713
 1.60000    1.78     1.78   0.41235  -10.9708
 1.55000    1.78     1.78   0.41242  -10.9709
 1.50000    1.78     1.78   0.41267  -10.9704
 1.45000    1.78     1.78   0.41318  -10.9702
 1.40000    1.78     1.78   0.41362  -10.9698
 1.35000    1.78     1.78   0.41425  -10.9695
 1.30000    1.78     1.78   0.41469  -10.9695
 1.25000    1.78     1.78   0.41556  -10.9690
 1.20000    1.78     1.78   0.41639  -10.9690
 1.15000    1.78     1.78   0.41769  -10.9688
 1.10000    1.78     1.78   0.41891  -10.9685
 1.05000    1.78     1.78   0.42035  -10.9690
 1.00000    1.78     1.78   0.42109  -10.9694
 0.95000    1.78     1.78   0.42164  -10.9696
 0.90000    1.78     1.78   0.42227  -10.9699
 0.85000    1.78     1.78   0.42265  -10.9698
 0.80000    1.78     1.78   0.42299  -10.9703
 0.75000    1.78     1.78   0.42309  -10.9699
 0.70000    1.78     1.78   0.42315  -10.9701
 0.65000    1.78     1.78   0.42354  -10.9701
 0.60000    1.78     1.78   0.42364  -10.9703
 0.55000    1.78     1.78   0.42399  -10.9708
 0.50000    1.78     1.78   0.42436  -10.9707
 0.45000    1.78     1.78   0.42441  -10.9710
 0.40000    1.78     1.78   0.42452  -10.9712
 0.35000    1.78     1.78   0.42500  -10.9712
 0.30000    1.78     1.78   0.42459  -10.9709
 0.25000    1.78     1.78   0.42442  -10.9696
 0.20000    1.78     1.78   0.42519  -10.9699
 0.15000    1.78     1.78   0.42551  -10.9697
 0.10000    1.78     1.78   0.42582  -10.9701
 0.05000    1.78     1.78   0.42577  -10.9702
 -0.00000    1.78     1.78   0.42578  -10.9704
