 Field[T] Tsmpl[K] Tcntr[K] Signal
 7.00000    5.62     3.20   3.44880
 6.95000    5.62     3.21   3.46840
 6.90000    5.63     3.20   3.49380
 6.85000    5.63     3.21   3.48490
 6.80000    5.63     3.21   3.51070
 6.75000    5.63     3.20   3.51650
 6.70000    5.63     3.20   3.50690
 6.65000    5.63     3.20   3.39490
 6.60000    5.63     3.20   3.43780
 6.55000    5.63     3.19   3.50000
 6.50000    5.64     3.21   3.49880
 6.45000    5.64     3.20   3.50250
 6.40000    5.64     3.20   3.50130
 6.35000    5.65     3.20   3.50410
 6.30000    5.65     3.21   3.50320
 6.25000    5.65     3.20   3.50220
 6.20000    5.66     3.20   3.49170
 6.15000    5.66     3.21   3.48640
 6.10000    5.66     3.19   3.47780
 6.05000    5.66     3.21   3.47970
 6.00000    5.66     3.20   3.47440
 5.95000    5.66     3.20   3.47290
 5.90000    5.67     3.20   3.47340
 5.85000    5.67     3.20   3.45620
 5.80000    5.68     3.20   3.46700
 5.75000    5.68     3.20   3.45680
 5.70000    5.69     3.21   3.46180
 5.65000    5.70     3.20   3.46190
 5.60000    5.70     3.20   3.44990
 5.55000    5.71     3.20   3.44620
 5.50000    5.72     3.20   3.43320
 5.45000    5.72     3.20   3.43660
 5.40000    5.73     3.21   3.42450
 5.35000    5.74     3.21   3.42060
 5.30000    5.74     3.21   3.42800
 5.25000    5.75     3.21   3.42720
 5.20000    5.75     3.20   3.41210
 5.15000    5.76     3.20   3.41200
 5.10000    5.76     3.20   3.40460
 5.05000    5.77     3.20   3.41640
 5.00000    5.77     3.20   3.40760
 4.95000    5.77     3.21   3.41370
 4.90000    5.78     3.20   3.41210
 4.85000    5.78     3.21   3.42430
 4.80000    5.78     3.20   3.42750
 4.75000    5.79     3.21   3.42310
 4.70000    5.79     3.20   3.42720
 4.65000    5.80     3.20   3.42610
 4.60000    5.80     3.20   3.43780
 4.55000    5.80     3.20   3.42910
 4.50000    5.81     3.20   3.43340
 4.45000    5.81     3.20   3.43430
 4.40000    5.81     3.20   3.43330
 4.35000    5.82     3.20   3.45530
 4.30000    5.82     3.20   3.46090
 4.25000    5.82     3.20   3.47500
 4.20000    5.83     3.21   3.48070
 4.15000    5.83     3.20   3.50090
 4.10000    5.83     3.20   3.51850
 4.05000    5.83     3.20   3.53770
 4.00000    5.84     3.20   3.53900
 3.95000    5.84     3.20   3.57040
 3.90000    5.84     3.20   3.57990
 3.85000    5.84     3.20   3.59630
 3.80000    5.84     3.21   3.61640
 3.75000    5.84     3.19   3.63170
 3.70000    5.84     3.20   3.65060
 3.65000    5.84     3.20   3.66920
 3.60000    5.84     3.19   3.68170
 3.55000    5.84     3.20   3.69750
 3.50000    5.84     3.20   3.71660
 3.45000    5.84     3.20   3.72990
 3.40000    5.84     3.20   3.75410
 3.35000    5.84     3.20   3.74790
 3.30000    5.84     3.20   3.75890
 3.25000    5.84     3.20   3.77160
 3.20000    5.84     3.20   3.78080
 3.15000    5.84     3.19   3.78970
 3.10000    5.84     3.20   3.79390
 3.05000    5.84     3.20   3.81040
 3.00000    5.84     3.20   3.82390
 2.95000    5.84     3.20   3.82780
 2.90000    5.84     3.19   3.82610
 2.85000    5.84     3.20   3.81990
 2.80000    5.83     3.19   3.80780
 2.75000    5.83     3.20   3.82010
 2.70000    5.83     3.20   3.81040
 2.65000    5.83     3.20   3.80950
 2.60000    5.82     3.20   3.77640
 2.55000    5.82     3.19   3.76970
 2.50000    5.82     3.20   3.78900
 2.45000    5.82     3.19   3.79230
 2.40000    5.81     3.20   3.78080
 2.35000    5.81     3.20   3.73720
 2.30000    5.81     3.21   3.71790
 2.25000    5.81     3.21   3.72740
 2.20000    5.81     3.20   3.73460
 2.15000    5.81     3.21   3.74320
 2.10000    5.81     3.19   3.80290
 2.05000    5.81     3.21   3.80370
 2.00000    5.80     3.20   3.81440
 1.95000    5.80     3.20   3.82250
 1.90000    5.80     3.20   3.83920
 1.85000    5.80     3.20   3.86720
 1.80000    5.80     3.20   3.85920
 1.75000    5.80     3.20   3.81210
 1.70000    5.79     3.20   3.78130
 1.65000    5.79     3.20   3.76750
 1.60000    5.78     3.19   3.78330
 1.55000    5.77     3.20   3.80920
 1.50000    5.76     3.20   3.82890
 1.45000    5.76     3.19   3.84910
 1.40000    5.75     3.20   3.84340
 1.35000    5.74     3.20   3.87040
 1.30000    5.73     3.19   3.88150
 1.25000    5.72     3.20   3.89300
 1.20000    5.71     3.19   3.90520
 1.15000    5.70     3.19   3.88860
 1.10000    5.68     3.20   3.88970
 1.05000    5.67     3.19   3.88200
 1.00000    5.65     3.19   3.88010
 0.95000    5.63     3.19   3.87370
 0.90000    5.61     3.19   3.86640
 0.85000    5.59     3.19   3.86390
 0.80000    5.57     3.18   3.85760
 0.75000    5.56     3.19   3.83710
 0.70000    5.54     3.19   3.83660
 0.65000    5.53     3.19   3.84300
 0.60000    5.52     3.19   3.85110
 0.55000    5.51     3.19   3.84610
 0.50000    5.51     3.19   3.86260
 0.45000    5.50     3.20   3.85550
 0.40000    5.50     3.20   3.84210
 0.35000    5.50     3.20   3.84480
 0.30000    5.50     3.20   3.83710
 0.25000    5.51     3.20   3.83860
 0.20000    5.51     3.20   3.82660
 0.15000    5.51     3.19   3.83340
 0.10000    5.51     3.20   3.82740
 0.05000    5.51     3.19   3.82080
-0.00000    5.50     3.19   3.82040
