 Field[T] Tsmpl[K] Tcntr[K] Signal
 0.00000    1.85     1.88   2.09210
 0.05000    1.85     1.88   2.09910
 0.10000    1.85     1.88   2.09470
 0.15000    1.85     1.88   2.09680
 0.20000    1.85     1.88   2.09380
 0.25000    1.85     1.88   2.09840
 0.30000    1.85     1.88   2.10100
 0.35000    1.85     1.88   2.10620
 0.40000    1.85     1.88   2.11350
 0.45000    1.85     1.88   2.11360
 0.50000    1.85     1.88   2.11530
 0.55000    1.85     1.88   2.11450
 0.60000    1.85     1.88   2.12410
 0.65000    1.85     1.88   2.12420
 0.70000    1.85     1.88   2.11670
 0.75000    1.85     1.88   2.11480
 0.80000    1.85     1.88   2.11040
 0.85000    1.85     1.88   2.10410
 0.90000    1.85     1.88   2.09660
 0.95000    1.85     1.88   2.09370
 1.00000    1.85     1.88   2.08930
 1.05000    1.85     1.88   2.08230
 1.10000    1.85     1.88   2.07860
 1.15000    1.85     1.88   2.07060
 1.20000    1.85     1.88   2.06590
 1.25000    1.85     1.88   2.07110
 1.30000    1.85     1.88   2.08440
 1.35000    1.85     1.88   2.09010
 1.40000    1.85     1.88   2.09840
 1.45000    1.85     1.88   2.09410
 1.50000    1.85     1.88   2.07160
 1.55000    1.85     1.88   2.04460
 1.60000    1.85     1.88   2.01840
 1.65000    1.85     1.88   1.99250
 1.70000    1.85     1.88   1.96450
 1.75000    1.85     1.88   1.93440
 1.80000    1.85     1.88   1.89510
 1.85000    1.85     1.88   1.85220
 1.90000    1.85     1.88   1.80830
 1.95000    1.85     1.88   1.75800
 2.00000    1.85     1.88   1.71800
 2.05000    1.85     1.88   1.66630
 2.10000    1.85     1.88   1.61910
 2.15000    1.85     1.88   1.57980
 2.20000    1.85     1.88   1.53320
 2.25000    1.85     1.88   1.49550
 2.30000    1.85     1.88   1.46800
 2.35000    1.85     1.88   1.43080
 2.40000    1.85     1.88   1.40530
 2.45000    1.85     1.88   1.38690
 2.50000    1.86     1.88   1.37390
 2.55000    1.86     1.88   1.36270
 2.60000    1.86     1.88   1.35530
 2.65000    1.86     0.00   1.35750
 2.70000    1.86     1.89   1.35920
 2.75000    1.86     1.89   1.36210
 2.80000    1.86     1.89   1.36380
 2.85000    1.86     1.89   1.37830
 2.90000    1.86     1.89   1.38740
 2.95000    1.86     1.89   1.39730
 3.00000    1.86     1.89   1.41100
 3.05000    1.86     1.89   1.42370
 3.10000    1.86     1.89   1.43730
 3.15000    1.86     1.89   1.45750
 3.20000    1.86     1.89   1.47540
 3.25000    1.86     1.89   1.49330
 3.30000    1.86     1.89   1.50490
 3.35000    1.86     1.89   1.52200
 3.40000    1.86     1.89   1.54210
 3.45000    1.86     1.89   1.56040
 3.50000    1.86     1.89   1.57660
 3.55000    1.86     1.89   1.58960
 3.60000    1.86     1.90   1.61140
 3.65000    1.86     1.90   1.62550
 3.70000    1.86     1.90   1.62980
 3.75000    1.86     1.90   1.64980
 3.80000    1.86     1.90   1.66190
 3.85000    1.86     1.90   1.67250
 3.90000    1.86     1.90   1.69020
 3.95000    1.86     1.90   1.70050
 4.00000    1.86     1.90   1.70910
 4.05000    1.86     1.90   1.72310
 4.10000    1.86     1.90   1.73050
 4.15000    1.86     1.90   1.74310
 4.20000    1.87     1.90   1.74720
 4.25000    1.87     1.90   1.75770
 4.30000    1.87     1.90   1.76830
 4.35000    1.87     1.90   1.77300
 4.40000    1.87     1.90   1.77630
 4.45000    1.87     1.90   1.79090
 4.50000    1.87     1.90   1.79570
 4.55000    1.87     1.90   1.79560
 4.60000    1.87     1.90   1.80350
 4.65000    1.87     1.91   1.80620
 4.70000    1.87     1.91   1.80790
 4.75000    1.87     1.91   1.82400
 4.80000    1.87     1.91   1.81600
 4.85000    1.87     1.91   1.82450
 4.90000    1.87     1.91   1.82300
 4.95000    1.87     1.91   1.82110
 5.00000    1.87     1.91   1.82420
 5.05000    1.87     1.91   1.82940
 5.10000    1.87     1.91   1.83330
 5.15000    1.87     1.91   1.83360
 5.20000    1.87     1.91   1.82450
 5.25000    1.87     1.90   1.83250
 5.30000    1.87     1.90   1.83450
 5.35000    1.87     1.90   1.83290
 5.40000    1.87     1.90   1.82950
 5.45000    1.87     1.90   1.83000
 5.50000    1.87     1.90   1.84090
 5.55000    1.87     1.90   1.83990
 5.60000    1.87     1.90   1.83840
 5.65000    1.86     1.90   1.84170
 5.70000    1.86     1.90   1.83840
 5.75000    1.86     1.90   1.83880
 5.80000    1.86     1.90   1.84110
 5.85000    1.86     1.90   1.83460
 5.90000    1.86     1.90   1.83250
 5.95000    1.86     1.90   1.83070
 6.00000    1.86     1.90   1.82920
 6.05000    1.86     1.90   1.82730
 6.10000    1.86     1.90   1.82760
 6.15000    1.86     1.90   1.82800
 6.20000    1.86     1.90   1.82790
 6.25000    1.86     1.90   1.83240
 6.30000    1.86     1.90   1.83330
 6.35000    1.86     1.90   1.82890
 6.40000    1.86     1.90   1.82390
 6.45000    1.86     1.90   1.83640
 6.50000    1.86     1.90   1.82260
 6.55000    1.86     1.90   1.82660
 6.60000    1.86     1.90   1.82390
 6.65000    1.86     1.90   1.81920
 6.70000    1.86     1.90   1.81360
 6.75000    1.86     1.90   1.81500
 6.80000    1.86     1.90   1.81930
 6.85000    1.86     1.90   1.81660
 6.90000    1.86     1.90   1.80970
 6.95000    1.86     1.90   1.81060
 7.00000    1.86     1.90   1.80660
