 Field[T] Tsmpl[K] Tcntr[K] Signal
 0.00000    1.78     1.80   1.00450
 0.05000    1.78     1.80   1.00810
 0.10000    1.78     1.80   1.00240
 0.15000    1.78     1.80   1.00420
 0.20000    1.78     1.80   1.00600
 0.25000    1.78     1.80   1.00580
 0.30000    1.78     1.80   1.00550
 0.35000    1.78     1.80   1.00510
 0.40000    1.78     1.80   1.00500
 0.45000    1.78     1.80   1.00700
 0.50000    1.78     1.80   1.00620
 0.55000    1.78     1.80   1.00600
 0.60000    1.78     1.80   1.00570
 0.65000    1.78     1.80   1.00880
 0.70000    1.78     1.80   1.00850
 0.75000    1.78     1.80   1.01000
 0.80000    1.78     1.80   1.00910
 0.85000    1.78     1.80   1.01120
 0.90000    1.78     1.80   1.01190
 0.95000    1.78     1.80   1.01180
 1.00000    1.78     1.80   1.01400
 1.05000    1.78     1.80   1.01670
 1.10000    1.78     1.80   1.01520
 1.15000    1.78     1.80   1.01530
 1.20000    1.78     1.80   1.01860
 1.25000    1.78     1.80   1.01710
 1.30000    1.78     1.80   1.01740
 1.35000    1.78     1.80   1.01690
 1.40000    1.78     1.80   1.02070
 1.45000    1.78     1.80   1.02260
 1.50000    1.79     1.80   1.02390
 1.55000    1.79     1.80   1.02140
 1.60000    1.79     1.80   1.02450
 1.65000    1.79     1.80   1.02270
 1.70000    1.79     1.80   1.02230
 1.75000    1.79     1.80   1.01950
 1.80000    1.79     1.80   1.02500
 1.85000    1.79     1.80   1.02620
 1.90000    1.79     1.80   1.02540
 1.95000    1.79     1.80   1.02540
 2.00000    1.79     1.80   1.02390
 2.05000    1.79     1.80   1.02750
 2.10000    1.79     1.80   1.02890
 2.15000    1.79     1.80   1.03070
 2.20000    1.79     1.80   1.02630
 2.25000    1.79     1.80   1.02880
 2.30000    1.79     1.80   1.02870
 2.35000    1.80     1.80   1.02820
 2.40000    1.80     1.80   1.03120
 2.45000    1.80     1.81   1.03040
 2.50000    1.80     1.81   1.03020
 2.55000    1.80     1.81   1.02790
 2.60000    1.80     1.81   1.03260
 2.65000    1.80     1.81   1.03080
 2.70000    1.80     1.81   1.03140
 2.75000    1.80     1.81   1.03150
 2.80000    1.80     1.81   1.03300
 2.85000    1.80     1.81   1.03030
 2.90000    1.80     1.81   1.03170
 2.95000    1.80     1.81   1.03210
 3.00000    1.80     1.81   1.03270
 3.05000    1.80     1.81   1.03240
 3.10000    1.80     1.81   1.03480
 3.15000    1.80     1.81   1.03340
 3.20000    1.80     1.81   1.03430
 3.25000    1.80     1.81   1.03270
 3.30000    1.80     1.81   1.03420
 3.35000    1.80     1.81   1.03490
 3.40000    1.80     1.81   1.03360
 3.45000    1.81     1.82   1.03240
 3.50000    1.81     1.82   1.03500
 3.55000    1.81     1.82   1.03610
 3.60000    1.81     1.82   1.03570
 3.65000    1.81     1.82   1.03940
 3.70000    1.81     1.82   1.03830
 3.75000    1.81     1.82   1.03810
 3.80000    1.81     1.82   1.04050
 3.85000    1.81     1.82   1.04010
 3.90000    1.81     1.82   1.04090
 3.95000    1.81     1.82   1.04160
 4.00000    1.81     1.82   1.03990
 4.05000    1.81     1.82   1.04190
 4.10000    1.81     1.82   1.04210
 4.15000    1.81     1.82   1.04290
 4.20000    1.81     1.82   1.04320
 4.25000    1.81     1.82   1.04130
 4.30000    1.81     1.82   1.04210
 4.35000    1.81     1.82   1.04110
 4.40000    1.81     1.82   1.04180
 4.45000    1.81     1.83   1.04590
 4.50000    1.81     1.83   1.04510
 4.55000    1.81     1.83   1.04560
 4.60000    1.81     1.83   1.04620
 4.65000    1.81     1.83   1.04570
 4.70000    1.82     1.83   1.04350
 4.75000    1.82     1.83   1.04690
 4.80000    1.82     1.83   1.04440
 4.85000    1.82     1.83   1.04210
 4.90000    1.82     1.83   1.04350
 4.95000    1.82     1.83   1.04380
 5.00000    1.82     1.83   1.04690
 5.05000    1.82     1.83   1.04520
 5.10000    1.82     1.83   1.04400
 5.15000    1.82     1.83   1.04330
 5.20000    1.82     1.83   1.04390
 5.25000    1.82     1.83   1.04330
 5.30000    1.82     1.83   1.04410
 5.35000    1.82     1.83   1.04910
 5.40000    1.82     1.83   1.04820
 5.45000    1.82     1.83   1.04730
 5.50000    1.82     1.83   1.04830
 5.55000    1.82     1.83   1.05210
 5.60000    1.82     1.84   1.05140
 5.65000    1.82     1.84   1.04910
 5.70000    1.82     1.84   1.05010
 5.75000    1.82     1.84   1.05020
 5.80000    1.82     1.84   1.05020
 5.85000    1.82     1.84   1.04770
 5.90000    1.82     1.84   1.04970
 5.95000    1.82     1.84   1.05110
 6.00000    1.82     1.84   1.05110
 6.05000    1.83     1.84   1.05370
 6.10000    1.83     1.84   1.05100
 6.15000    1.83     1.84   1.05350
 6.20000    1.83     1.84   1.05260
 6.25000    1.83     1.84   1.05200
 6.30000    1.83     1.84   1.05330
 6.35000    1.83     1.84   1.05200
 6.40000    1.83     1.85   1.05530
 6.45000    1.83     1.85   1.05230
 6.50000    1.83     1.85   1.05330
 6.55000    1.83     1.85   1.05310
 6.60000    1.83     1.85   1.05160
 6.65000    1.83     1.85   1.05690
 6.70000    1.83     1.85   1.05420
 6.75000    1.83     1.85   1.05530
 6.80000    1.83     1.85   1.05380
 6.85000    1.83     1.85   1.05560
 6.90000    1.83     1.85   1.05610
 6.95000    1.83     1.85   1.05650
 7.00000    1.83     1.85   1.05920
 7.00000    1.83     1.85   1.05860
